Theta [deg.]  Phi   [deg.]  Abs(Gain)[dBi   ]   Abs(Theta)[dBi   ]  Phase(Theta)[deg.]  Abs(Phi  )[dBi   ]  Phase(Phi  )[deg.]  Ax.Ratio[dB    ]    
------------------------------------------------------------------------------------------------------------------------------------------------------
   0.000          90.000            2.857e+00           2.857e+00             152.324          -1.271e+02              42.600           4.000e+01     
   1.000          90.000            2.865e+00           2.865e+00             152.361          -1.273e+02              41.765           4.000e+01     
   2.000          90.000            2.869e+00           2.869e+00             152.398          -1.276e+02              40.901           4.000e+01     
   3.000          90.000            2.872e+00           2.872e+00             152.437          -1.278e+02              40.007           4.000e+01     
   4.000          90.000            2.871e+00           2.871e+00             152.477          -1.281e+02              39.080           4.000e+01     
   5.000          90.000            2.867e+00           2.867e+00             152.517          -1.284e+02              38.116           4.000e+01     
   6.000          90.000            2.861e+00           2.861e+00             152.559          -1.287e+02              37.112           4.000e+01     
   7.000          90.000            2.852e+00           2.852e+00             152.602          -1.290e+02              36.062           4.000e+01     
   8.000          90.000            2.840e+00           2.840e+00             152.647          -1.293e+02              34.964           4.000e+01     
   9.000          90.000            2.826e+00           2.826e+00             152.692          -1.296e+02              33.811           4.000e+01     
  10.000          90.000            2.809e+00           2.809e+00             152.739          -1.299e+02              32.599           4.000e+01     
  11.000          90.000            2.788e+00           2.788e+00             152.787          -1.302e+02              31.320           4.000e+01     
  12.000          90.000            2.766e+00           2.766e+00             152.836          -1.306e+02              29.970           4.000e+01     
  13.000          90.000            2.740e+00           2.740e+00             152.886          -1.309e+02              28.541           4.000e+01     
  14.000          90.000            2.712e+00           2.712e+00             152.938          -1.313e+02              27.026           4.000e+01     
  15.000          90.000            2.680e+00           2.680e+00             152.991          -1.316e+02              25.418           4.000e+01     
  16.000          90.000            2.646e+00           2.646e+00             153.045          -1.320e+02              23.710           4.000e+01     
  17.000          90.000            2.610e+00           2.610e+00             153.101          -1.323e+02              21.893           4.000e+01     
  18.000          90.000            2.570e+00           2.570e+00             153.158          -1.327e+02              19.961           4.000e+01     
  19.000          90.000            2.528e+00           2.528e+00             153.216          -1.330e+02              17.907           4.000e+01     
  20.000          90.000            2.483e+00           2.483e+00             153.275          -1.334e+02              15.724           4.000e+01     
  21.000          90.000            2.435e+00           2.435e+00             153.336          -1.337e+02              13.408           4.000e+01     
  22.000          90.000            2.385e+00           2.385e+00             153.399          -1.341e+02              10.957           4.000e+01     
  23.000          90.000            2.332e+00           2.332e+00             153.463          -1.344e+02               8.370           4.000e+01     
  24.000          90.000            2.276e+00           2.276e+00             153.528          -1.347e+02               5.652           4.000e+01     
  25.000          90.000            2.217e+00           2.217e+00             153.595          -1.350e+02               2.810           4.000e+01     
  26.000          90.000            2.156e+00           2.156e+00             153.663          -1.352e+02             359.855           4.000e+01     
  27.000          90.000            2.092e+00           2.092e+00             153.733          -1.355e+02             356.805           4.000e+01     
  28.000          90.000            2.025e+00           2.025e+00             153.804          -1.357e+02             353.682           4.000e+01     
  29.000          90.000            1.955e+00           1.955e+00             153.877          -1.359e+02             350.512           4.000e+01     
  30.000          90.000            1.883e+00           1.883e+00             153.951          -1.360e+02             347.325           4.000e+01     
  31.000          90.000            1.809e+00           1.809e+00             154.027          -1.361e+02             344.153           4.000e+01     
  32.000          90.000            1.731e+00           1.731e+00             154.105          -1.362e+02             341.030           4.000e+01     
  33.000          90.000            1.651e+00           1.651e+00             154.184          -1.362e+02             337.987           4.000e+01     
  34.000          90.000            1.568e+00           1.568e+00             154.266          -1.362e+02             335.054           4.000e+01     
  35.000          90.000            1.483e+00           1.483e+00             154.348          -1.362e+02             332.258           4.000e+01     
  36.000          90.000            1.395e+00           1.395e+00             154.433          -1.361e+02             329.619           4.000e+01     
  37.000          90.000            1.304e+00           1.304e+00             154.520          -1.361e+02             327.155           4.000e+01     
  38.000          90.000            1.211e+00           1.211e+00             154.608          -1.360e+02             324.877           4.000e+01     
  39.000          90.000            1.115e+00           1.115e+00             154.698          -1.358e+02             322.793           4.000e+01     
  40.000          90.000            1.016e+00           1.016e+00             154.790          -1.357e+02             320.904           4.000e+01     
  41.000          90.000            9.153e-01           9.153e-01             154.884          -1.356e+02             319.212           4.000e+01     
  42.000          90.000            8.117e-01           8.117e-01             154.981          -1.354e+02             317.713           4.000e+01     
  43.000          90.000            7.055e-01           7.055e-01             155.079          -1.352e+02             316.402           4.000e+01     
  44.000          90.000            5.968e-01           5.968e-01             155.180          -1.351e+02             315.271           4.000e+01     
  45.000          90.000            4.855e-01           4.855e-01             155.282          -1.349e+02             314.314           4.000e+01     
  46.000          90.000            3.717e-01           3.717e-01             155.387          -1.347e+02             313.522           4.000e+01     
  47.000          90.000            2.554e-01           2.554e-01             155.495          -1.346e+02             312.887           4.000e+01     
  48.000          90.000            1.365e-01           1.365e-01             155.604          -1.344e+02             312.400           4.000e+01     
  49.000          90.000            1.513e-02           1.513e-02             155.716          -1.342e+02             312.051           4.000e+01     
  50.000          90.000           -1.088e-01          -1.088e-01             155.831          -1.340e+02             311.833           4.000e+01     
  51.000          90.000           -2.352e-01          -2.352e-01             155.948          -1.338e+02             311.736           4.000e+01     
  52.000          90.000           -3.641e-01          -3.641e-01             156.068          -1.337e+02             311.754           4.000e+01     
  53.000          90.000           -4.955e-01          -4.955e-01             156.191          -1.335e+02             311.877           4.000e+01     
  54.000          90.000           -6.294e-01          -6.294e-01             156.316          -1.333e+02             312.098           4.000e+01     
  55.000          90.000           -7.658e-01          -7.658e-01             156.445          -1.331e+02             312.410           4.000e+01     
  56.000          90.000           -9.046e-01          -9.046e-01             156.576          -1.330e+02             312.806           4.000e+01     
  57.000          90.000           -1.046e+00          -1.046e+00             156.711          -1.328e+02             313.277           4.000e+01     
  58.000          90.000           -1.190e+00          -1.190e+00             156.848          -1.326e+02             313.817           4.000e+01     
  59.000          90.000           -1.336e+00          -1.336e+00             156.989          -1.324e+02             314.420           4.000e+01     
  60.000          90.000           -1.485e+00          -1.485e+00             157.134          -1.323e+02             315.080           4.000e+01     
  61.000          90.000           -1.637e+00          -1.637e+00             157.281          -1.321e+02             315.789           4.000e+01     
  62.000          90.000           -1.791e+00          -1.791e+00             157.433          -1.319e+02             316.543           4.000e+01     
  63.000          90.000           -1.947e+00          -1.947e+00             157.588          -1.317e+02             317.335           4.000e+01     
  64.000          90.000           -2.107e+00          -2.107e+00             157.747          -1.315e+02             318.161           4.000e+01     
  65.000          90.000           -2.268e+00          -2.268e+00             157.909          -1.313e+02             319.014           4.000e+01     
  66.000          90.000           -2.433e+00          -2.433e+00             158.076          -1.312e+02             319.890           4.000e+01     
  67.000          90.000           -2.600e+00          -2.600e+00             158.247          -1.310e+02             320.785           4.000e+01     
  68.000          90.000           -2.769e+00          -2.769e+00             158.422          -1.308e+02             321.693           4.000e+01     
  69.000          90.000           -2.942e+00          -2.942e+00             158.602          -1.306e+02             322.611           4.000e+01     
  70.000          90.000           -3.117e+00          -3.117e+00             158.786          -1.304e+02             323.535           4.000e+01     
  71.000          90.000           -3.295e+00          -3.295e+00             158.975          -1.302e+02             324.462           4.000e+01     
  72.000          90.000           -3.476e+00          -3.476e+00             159.168          -1.300e+02             325.388           4.000e+01     
  73.000          90.000           -3.659e+00          -3.659e+00             159.367          -1.298e+02             326.310           4.000e+01     
  74.000          90.000           -3.846e+00          -3.846e+00             159.571          -1.296e+02             327.227           4.000e+01     
  75.000          90.000           -4.035e+00          -4.035e+00             159.780          -1.295e+02             328.135           4.000e+01     
  76.000          90.000           -4.228e+00          -4.228e+00             159.994          -1.293e+02             329.033           4.000e+01     
  77.000          90.000           -4.424e+00          -4.424e+00             160.214          -1.291e+02             329.919           4.000e+01     
  78.000          90.000           -4.622e+00          -4.622e+00             160.440          -1.289e+02             330.792           4.000e+01     
  79.000          90.000           -4.825e+00          -4.825e+00             160.672          -1.287e+02             331.650           4.000e+01     
  80.000          90.000           -5.030e+00          -5.030e+00             160.910          -1.285e+02             332.493           4.000e+01     
  81.000          90.000           -5.240e+00          -5.240e+00             161.155          -1.283e+02             333.319           4.000e+01     
  82.000          90.000           -5.452e+00          -5.452e+00             161.406          -1.282e+02             334.128           4.000e+01     
  83.000          90.000           -5.669e+00          -5.669e+00             161.664          -1.280e+02             334.920           4.000e+01     
  84.000          90.000           -5.889e+00          -5.889e+00             161.930          -1.278e+02             335.695           4.000e+01     
  85.000          90.000           -6.114e+00          -6.114e+00             162.202          -1.276e+02             336.452           4.000e+01     
  86.000          90.000           -6.343e+00          -6.343e+00             162.483          -1.275e+02             337.191           4.000e+01     
  87.000          90.000           -6.576e+00          -6.576e+00             162.771          -1.273e+02             337.913           4.000e+01     
  88.000          90.000           -6.813e+00          -6.813e+00             163.068          -1.271e+02             338.618           4.000e+01     
  89.000          90.000           -7.055e+00          -7.055e+00             163.373          -1.270e+02             339.306           4.000e+01     
  90.000          90.000           -7.303e+00          -7.303e+00             163.687          -1.268e+02             339.977           4.000e+01     
  91.000          90.000           -7.555e+00          -7.555e+00             164.011          -1.267e+02             340.633           4.000e+01     
  92.000          90.000           -7.814e+00          -7.814e+00             164.345          -1.265e+02             341.273           4.000e+01     
  93.000          90.000           -8.077e+00          -8.077e+00             164.689          -1.264e+02             341.898           4.000e+01     
  94.000          90.000           -8.348e+00          -8.348e+00             165.044          -1.262e+02             342.509           4.000e+01     
  95.000          90.000           -8.624e+00          -8.624e+00             165.411          -1.261e+02             343.107           4.000e+01     
  96.000          90.000           -8.907e+00          -8.907e+00             165.790          -1.260e+02             343.692           4.000e+01     
  97.000          90.000           -9.198e+00          -9.198e+00             166.182          -1.258e+02             344.264           4.000e+01     
  98.000          90.000           -9.496e+00          -9.496e+00             166.587          -1.257e+02             344.826           4.000e+01     
  99.000          90.000           -9.803e+00          -9.803e+00             167.008          -1.256e+02             345.376           4.000e+01     
 100.000          90.000           -1.012e+01          -1.012e+01             167.445          -1.255e+02             345.917           4.000e+01     
 101.000          90.000           -1.044e+01          -1.044e+01             167.898          -1.254e+02             346.449           4.000e+01     
 102.000          90.000           -1.078e+01          -1.078e+01             168.370          -1.253e+02             346.973           4.000e+01     
 103.000          90.000           -1.112e+01          -1.112e+01             168.863          -1.252e+02             347.490           4.000e+01     
 104.000          90.000           -1.148e+01          -1.148e+01             169.377          -1.251e+02             348.000           4.000e+01     
 105.000          90.000           -1.185e+01          -1.185e+01             169.915          -1.250e+02             348.504           4.000e+01     
 106.000          90.000           -1.224e+01          -1.224e+01             170.481          -1.249e+02             349.004           4.000e+01     
 107.000          90.000           -1.263e+01          -1.263e+01             171.076          -1.249e+02             349.499           4.000e+01     
 108.000          90.000           -1.305e+01          -1.305e+01             171.704          -1.248e+02             349.992           4.000e+01     
 109.000          90.000           -1.348e+01          -1.348e+01             172.370          -1.247e+02             350.483           4.000e+01     
 110.000          90.000           -1.394e+01          -1.394e+01             173.078          -1.247e+02             350.972           4.000e+01     
 111.000          90.000           -1.441e+01          -1.441e+01             173.835          -1.246e+02             351.462           4.000e+01     
 112.000          90.000           -1.491e+01          -1.491e+01             174.649          -1.246e+02             351.952           4.000e+01     
 113.000          90.000           -1.543e+01          -1.543e+01             175.528          -1.245e+02             352.444           4.000e+01     
 114.000          90.000           -1.598e+01          -1.598e+01             176.485          -1.245e+02             352.939           4.000e+01     
 115.000          90.000           -1.657e+01          -1.657e+01             177.534          -1.245e+02             353.437           4.000e+01     
 116.000          90.000           -1.720e+01          -1.720e+01             178.694          -1.245e+02             353.941           4.000e+01     
 117.000          90.000           -1.786e+01          -1.786e+01             179.991          -1.244e+02             354.451           4.000e+01     
 118.000          90.000           -1.858e+01          -1.858e+01             181.455          -1.244e+02             354.968           4.000e+01     
 119.000          90.000           -1.935e+01          -1.935e+01             183.133          -1.244e+02             355.494           4.000e+01     
 120.000          90.000           -2.019e+01          -2.019e+01             185.084          -1.244e+02             356.030           4.000e+01     
 121.000          90.000           -2.110e+01          -2.110e+01             187.395          -1.244e+02             356.577           4.000e+01     
 122.000          90.000           -2.210e+01          -2.210e+01             190.188          -1.245e+02             357.137           4.000e+01     
 123.000          90.000           -2.320e+01          -2.320e+01             193.649          -1.245e+02             357.711           4.000e+01     
 124.000          90.000           -2.441e+01          -2.441e+01             198.054          -1.245e+02             358.301           4.000e+01     
 125.000          90.000           -2.575e+01          -2.575e+01             203.841          -1.246e+02             358.909           4.000e+01     
 126.000          90.000           -2.719e+01          -2.719e+01             211.668          -1.246e+02             359.536           4.000e+01     
 127.000          90.000           -2.867e+01          -2.867e+01             222.476          -1.246e+02               0.185           4.000e+01     
 128.000          90.000           -2.995e+01          -2.995e+01             237.210          -1.247e+02               0.857           4.000e+01     
 129.000          90.000           -3.064e+01          -3.064e+01             255.653          -1.248e+02               1.555           4.000e+01     
