Theta [deg.]  Phi   [deg.]  Abs(Gain)[dBi   ]   Abs(Theta)[dBi   ]  Phase(Theta)[deg.]  Abs(Phi  )[dBi   ]  Phase(Phi  )[deg.]  Ax.Ratio[dB    ]    
------------------------------------------------------------------------------------------------------------------------------------------------------
   0.000          90.000            2.537e+00           2.537e+00             271.481          -1.277e+02             184.246           4.000e+01     
   1.000          90.000            2.538e+00           2.538e+00             271.526          -1.280e+02             184.533           4.000e+01     
   2.000          90.000            2.536e+00           2.536e+00             271.573          -1.284e+02             184.855           4.000e+01     
   3.000          90.000            2.531e+00           2.531e+00             271.621          -1.287e+02             185.214           4.000e+01     
   4.000          90.000            2.524e+00           2.524e+00             271.671          -1.290e+02             185.614           4.000e+01     
   5.000          90.000            2.513e+00           2.513e+00             271.722          -1.294e+02             186.058           4.000e+01     
   6.000          90.000            2.500e+00           2.500e+00             271.775          -1.298e+02             186.548           4.000e+01     
   7.000          90.000            2.484e+00           2.484e+00             271.830          -1.302e+02             187.090           4.000e+01     
   8.000          90.000            2.465e+00           2.465e+00             271.887          -1.305e+02             187.686           4.000e+01     
   9.000          90.000            2.443e+00           2.443e+00             271.945          -1.310e+02             188.343           4.000e+01     
  10.000          90.000            2.418e+00           2.418e+00             272.005          -1.314e+02             189.063           4.000e+01     
  11.000          90.000            2.390e+00           2.390e+00             272.066          -1.318e+02             189.854           4.000e+01     
  12.000          90.000            2.360e+00           2.360e+00             272.130          -1.323e+02             190.720           4.000e+01     
  13.000          90.000            2.327e+00           2.327e+00             272.195          -1.327e+02             191.668           4.000e+01     
  14.000          90.000            2.290e+00           2.290e+00             272.262          -1.332e+02             192.704           4.000e+01     
  15.000          90.000            2.252e+00           2.252e+00             272.331          -1.337e+02             193.835           4.000e+01     
  16.000          90.000            2.210e+00           2.210e+00             272.402          -1.342e+02             195.069           4.000e+01     
  17.000          90.000            2.165e+00           2.165e+00             272.475          -1.347e+02             196.411           4.000e+01     
  18.000          90.000            2.118e+00           2.118e+00             272.549          -1.352e+02             197.869           4.000e+01     
  19.000          90.000            2.068e+00           2.068e+00             272.626          -1.357e+02             199.449           4.000e+01     
  20.000          90.000            2.015e+00           2.015e+00             272.704          -1.362e+02             201.156           4.000e+01     
  21.000          90.000            1.959e+00           1.959e+00             272.785          -1.367e+02             202.991           4.000e+01     
  22.000          90.000            1.901e+00           1.901e+00             272.867          -1.372e+02             204.957           4.000e+01     
  23.000          90.000            1.840e+00           1.840e+00             272.952          -1.377e+02             207.051           4.000e+01     
  24.000          90.000            1.776e+00           1.776e+00             273.038          -1.382e+02             209.264           4.000e+01     
  25.000          90.000            1.710e+00           1.710e+00             273.127          -1.387e+02             211.586           4.000e+01     
  26.000          90.000            1.640e+00           1.640e+00             273.218          -1.392e+02             213.998           4.000e+01     
  27.000          90.000            1.569e+00           1.569e+00             273.310          -1.396e+02             216.475           4.000e+01     
  28.000          90.000            1.494e+00           1.494e+00             273.405          -1.401e+02             218.985           4.000e+01     
  29.000          90.000            1.417e+00           1.417e+00             273.503          -1.405e+02             221.491           4.000e+01     
  30.000          90.000            1.337e+00           1.337e+00             273.602          -1.408e+02             223.948           4.000e+01     
  31.000          90.000            1.255e+00           1.255e+00             273.704          -1.412e+02             226.311           4.000e+01     
  32.000          90.000            1.170e+00           1.170e+00             273.808          -1.415e+02             228.529           4.000e+01     
  33.000          90.000            1.083e+00           1.083e+00             273.915          -1.418e+02             230.553           4.000e+01     
  34.000          90.000            9.929e-01           9.929e-01             274.024          -1.420e+02             232.335           4.000e+01     
  35.000          90.000            9.004e-01           9.004e-01             274.135          -1.423e+02             233.830           4.000e+01     
  36.000          90.000            8.056e-01           8.056e-01             274.249          -1.425e+02             234.999           4.000e+01     
  37.000          90.000            7.082e-01           7.082e-01             274.366          -1.427e+02             235.805           4.000e+01     
  38.000          90.000            6.085e-01           6.085e-01             274.485          -1.428e+02             236.217           4.000e+01     
  39.000          90.000            5.063e-01           5.063e-01             274.606          -1.430e+02             236.211           4.000e+01     
  40.000          90.000            4.018e-01           4.018e-01             274.731          -1.431e+02             235.767           4.000e+01     
  41.000          90.000            2.949e-01           2.949e-01             274.858          -1.432e+02             234.872           4.000e+01     
  42.000          90.000            1.857e-01           1.857e-01             274.988          -1.433e+02             233.521           4.000e+01     
  43.000          90.000            7.418e-02           7.418e-02             275.121          -1.433e+02             231.719           4.000e+01     
  44.000          90.000           -3.959e-02          -3.959e-02             275.257          -1.433e+02             229.484           4.000e+01     
  45.000          90.000           -1.556e-01          -1.556e-01             275.396          -1.433e+02             226.848           4.000e+01     
  46.000          90.000           -2.738e-01          -2.738e-01             275.538          -1.432e+02             223.860           4.000e+01     
  47.000          90.000           -3.942e-01          -3.942e-01             275.683          -1.431e+02             220.583           4.000e+01     
  48.000          90.000           -5.168e-01          -5.168e-01             275.832          -1.429e+02             217.095           4.000e+01     
  49.000          90.000           -6.415e-01          -6.415e-01             275.984          -1.426e+02             213.481           4.000e+01     
  50.000          90.000           -7.682e-01          -7.682e-01             276.139          -1.423e+02             209.829           4.000e+01     
  51.000          90.000           -8.971e-01          -8.971e-01             276.298          -1.419e+02             206.219           4.000e+01     
  52.000          90.000           -1.028e+00          -1.028e+00             276.460          -1.415e+02             202.717           4.000e+01     
  53.000          90.000           -1.161e+00          -1.161e+00             276.626          -1.410e+02             199.384           4.000e+01     
  54.000          90.000           -1.296e+00          -1.296e+00             276.796          -1.405e+02             196.252           4.000e+01     
  55.000          90.000           -1.433e+00          -1.433e+00             276.970          -1.399e+02             193.343           4.000e+01     
  56.000          90.000           -1.572e+00          -1.572e+00             277.148          -1.394e+02             190.665           4.000e+01     
  57.000          90.000           -1.712e+00          -1.712e+00             277.329          -1.388e+02             188.217           4.000e+01     
  58.000          90.000           -1.855e+00          -1.855e+00             277.515          -1.382e+02             185.990           4.000e+01     
  59.000          90.000           -1.999e+00          -1.999e+00             277.705          -1.377e+02             183.970           4.000e+01     
  60.000          90.000           -2.146e+00          -2.146e+00             277.900          -1.371e+02             182.143           4.000e+01     
  61.000          90.000           -2.294e+00          -2.294e+00             278.099          -1.366e+02             180.491           4.000e+01     
  62.000          90.000           -2.444e+00          -2.444e+00             278.303          -1.360e+02             178.999           4.000e+01     
  63.000          90.000           -2.596e+00          -2.596e+00             278.511          -1.355e+02             177.650           4.000e+01     
  64.000          90.000           -2.749e+00          -2.749e+00             278.724          -1.350e+02             176.430           4.000e+01     
  65.000          90.000           -2.905e+00          -2.905e+00             278.943          -1.345e+02             175.325           4.000e+01     
  66.000          90.000           -3.062e+00          -3.062e+00             279.166          -1.340e+02             174.323           4.000e+01     
  67.000          90.000           -3.220e+00          -3.220e+00             279.394          -1.335e+02             173.414           4.000e+01     
  68.000          90.000           -3.381e+00          -3.381e+00             279.628          -1.330e+02             172.587           4.000e+01     
  69.000          90.000           -3.543e+00          -3.543e+00             279.867          -1.326e+02             171.833           4.000e+01     
  70.000          90.000           -3.707e+00          -3.707e+00             280.112          -1.321e+02             171.146           4.000e+01     
  71.000          90.000           -3.872e+00          -3.872e+00             280.363          -1.317e+02             170.518           4.000e+01     
  72.000          90.000           -4.039e+00          -4.039e+00             280.619          -1.313e+02             169.943           4.000e+01     
  73.000          90.000           -4.208e+00          -4.208e+00             280.882          -1.309e+02             169.416           4.000e+01     
  74.000          90.000           -4.379e+00          -4.379e+00             281.150          -1.305e+02             168.933           4.000e+01     
  75.000          90.000           -4.551e+00          -4.551e+00             281.425          -1.301e+02             168.489           4.000e+01     
  76.000          90.000           -4.725e+00          -4.725e+00             281.706          -1.298e+02             168.081           4.000e+01     
  77.000          90.000           -4.901e+00          -4.901e+00             281.994          -1.294e+02             167.706           4.000e+01     
  78.000          90.000           -5.079e+00          -5.079e+00             282.288          -1.291e+02             167.360           4.000e+01     
  79.000          90.000           -5.258e+00          -5.258e+00             282.590          -1.288e+02             167.041           4.000e+01     
  80.000          90.000           -5.439e+00          -5.439e+00             282.898          -1.285e+02             166.747           4.000e+01     
  81.000          90.000           -5.622e+00          -5.622e+00             283.213          -1.281e+02             166.476           4.000e+01     
  82.000          90.000           -5.807e+00          -5.807e+00             283.536          -1.278e+02             166.226           4.000e+01     
  83.000          90.000           -5.993e+00          -5.993e+00             283.867          -1.276e+02             165.996           4.000e+01     
  84.000          90.000           -6.182e+00          -6.182e+00             284.205          -1.273e+02             165.783           4.000e+01     
  85.000          90.000           -6.373e+00          -6.373e+00             284.550          -1.270e+02             165.588           4.000e+01     
  86.000          90.000           -6.566e+00          -6.566e+00             284.904          -1.267e+02             165.408           4.000e+01     
  87.000          90.000           -6.761e+00          -6.761e+00             285.267          -1.265e+02             165.243           4.000e+01     
  88.000          90.000           -6.958e+00          -6.958e+00             285.637          -1.262e+02             165.092           4.000e+01     
  89.000          90.000           -7.157e+00          -7.157e+00             286.016          -1.260e+02             164.954           4.000e+01     
  90.000          90.000           -7.359e+00          -7.359e+00             286.405          -1.258e+02             164.828           4.000e+01     
  91.000          90.000           -7.564e+00          -7.564e+00             286.802          -1.255e+02             164.713           4.000e+01     
  92.000          90.000           -7.771e+00          -7.771e+00             287.208          -1.253e+02             164.610           4.000e+01     
  93.000          90.000           -7.981e+00          -7.981e+00             287.625          -1.251e+02             164.517           4.000e+01     
  94.000          90.000           -8.194e+00          -8.194e+00             288.051          -1.249e+02             164.434           4.000e+01     
  95.000          90.000           -8.410e+00          -8.410e+00             288.488          -1.247e+02             164.360           4.000e+01     
  96.000          90.000           -8.629e+00          -8.629e+00             288.935          -1.245e+02             164.296           4.000e+01     
  97.000          90.000           -8.851e+00          -8.851e+00             289.393          -1.243e+02             164.240           4.000e+01     
  98.000          90.000           -9.077e+00          -9.077e+00             289.863          -1.241e+02             164.193           4.000e+01     
  99.000          90.000           -9.307e+00          -9.307e+00             290.344          -1.240e+02             164.154           4.000e+01     
 100.000          90.000           -9.541e+00          -9.541e+00             290.838          -1.238e+02             164.122           4.000e+01     
 101.000          90.000           -9.779e+00          -9.779e+00             291.345          -1.236e+02             164.098           4.000e+01     
 102.000          90.000           -1.002e+01          -1.002e+01             291.866          -1.235e+02             164.082           4.000e+01     
 103.000          90.000           -1.027e+01          -1.027e+01             292.401          -1.233e+02             164.073           4.000e+01     
 104.000          90.000           -1.052e+01          -1.052e+01             292.950          -1.232e+02             164.070           4.000e+01     
 105.000          90.000           -1.078e+01          -1.078e+01             293.516          -1.230e+02             164.075           4.000e+01     
 106.000          90.000           -1.104e+01          -1.104e+01             294.098          -1.229e+02             164.086           4.000e+01     
 107.000          90.000           -1.132e+01          -1.132e+01             294.699          -1.228e+02             164.103           4.000e+01     
 108.000          90.000           -1.159e+01          -1.159e+01             295.319          -1.226e+02             164.127           4.000e+01     
 109.000          90.000           -1.188e+01          -1.188e+01             295.959          -1.225e+02             164.157           4.000e+01     
 110.000          90.000           -1.217e+01          -1.217e+01             296.622          -1.224e+02             164.193           4.000e+01     
 111.000          90.000           -1.247e+01          -1.247e+01             297.308          -1.223e+02             164.234           4.000e+01     
 112.000          90.000           -1.278e+01          -1.278e+01             298.021          -1.222e+02             164.282           4.000e+01     
 113.000          90.000           -1.310e+01          -1.310e+01             298.763          -1.221e+02             164.336           4.000e+01     
 114.000          90.000           -1.343e+01          -1.343e+01             299.536          -1.220e+02             164.395           4.000e+01     
 115.000          90.000           -1.377e+01          -1.377e+01             300.344          -1.219e+02             164.459           4.000e+01     
 116.000          90.000           -1.412e+01          -1.412e+01             301.190          -1.218e+02             164.529           4.000e+01     
 117.000          90.000           -1.449e+01          -1.449e+01             302.079          -1.217e+02             164.605           4.000e+01     
 118.000          90.000           -1.486e+01          -1.486e+01             303.017          -1.217e+02             164.685           4.000e+01     
 119.000          90.000           -1.526e+01          -1.526e+01             304.008          -1.216e+02             164.771           4.000e+01     
 120.000          90.000           -1.567e+01          -1.567e+01             305.062          -1.215e+02             164.863           4.000e+01     
 121.000          90.000           -1.610e+01          -1.610e+01             306.187          -1.215e+02             164.959           4.000e+01     
 122.000          90.000           -1.655e+01          -1.655e+01             307.392          -1.214e+02             165.060           4.000e+01     
 123.000          90.000           -1.702e+01          -1.702e+01             308.692          -1.214e+02             165.167           4.000e+01     
 124.000          90.000           -1.752e+01          -1.752e+01             310.102          -1.213e+02             165.278           4.000e+01     
 125.000          90.000           -1.804e+01          -1.804e+01             311.642          -1.213e+02             165.394           4.000e+01     
 126.000          90.000           -1.859e+01          -1.859e+01             313.335          -1.212e+02             165.515           4.000e+01     
 127.000          90.000           -1.918e+01          -1.918e+01             315.212          -1.212e+02             165.641           4.000e+01     
 128.000          90.000           -1.979e+01          -1.979e+01             317.312          -1.212e+02             165.772           4.000e+01     
 129.000          90.000           -2.045e+01          -2.045e+01             319.685          -1.211e+02             165.907           4.000e+01     
