Theta [deg.]  Phi   [deg.]  Abs(Gain)[dBi   ]   Abs(Theta)[dBi   ]  Phase(Theta)[deg.]  Abs(Phi  )[dBi   ]  Phase(Phi  )[deg.]  Ax.Ratio[dB    ]    
------------------------------------------------------------------------------------------------------------------------------------------------------
   0.000          90.000            2.649e+00           2.649e+00             156.768          -1.331e+02              36.072           4.000e+01     
   1.000          90.000            2.655e+00           2.655e+00             156.814          -1.334e+02              35.199           4.000e+01     
   2.000          90.000            2.658e+00           2.658e+00             156.861          -1.338e+02              34.274           4.000e+01     
   3.000          90.000            2.658e+00           2.658e+00             156.908          -1.342e+02              33.292           4.000e+01     
   4.000          90.000            2.656e+00           2.656e+00             156.957          -1.347e+02              32.242           4.000e+01     
   5.000          90.000            2.651e+00           2.651e+00             157.006          -1.351e+02              31.112           4.000e+01     
   6.000          90.000            2.642e+00           2.642e+00             157.057          -1.356e+02              29.889           4.000e+01     
   7.000          90.000            2.631e+00           2.631e+00             157.109          -1.361e+02              28.556           4.000e+01     
   8.000          90.000            2.617e+00           2.617e+00             157.162          -1.366e+02              27.092           4.000e+01     
   9.000          90.000            2.601e+00           2.601e+00             157.216          -1.371e+02              25.475           4.000e+01     
  10.000          90.000            2.581e+00           2.581e+00             157.271          -1.377e+02              23.675           4.000e+01     
  11.000          90.000            2.559e+00           2.559e+00             157.328          -1.383e+02              21.658           4.000e+01     
  12.000          90.000            2.534e+00           2.534e+00             157.385          -1.389e+02              19.382           4.000e+01     
  13.000          90.000            2.506e+00           2.506e+00             157.444          -1.396e+02              16.797           4.000e+01     
  14.000          90.000            2.476e+00           2.476e+00             157.504          -1.402e+02              13.847           4.000e+01     
  15.000          90.000            2.442e+00           2.442e+00             157.565          -1.409e+02              10.462           4.000e+01     
  16.000          90.000            2.406e+00           2.406e+00             157.628          -1.416e+02               6.569           4.000e+01     
  17.000          90.000            2.367e+00           2.367e+00             157.692          -1.423e+02               2.092           4.000e+01     
  18.000          90.000            2.325e+00           2.325e+00             157.756          -1.429e+02             356.961           4.000e+01     
  19.000          90.000            2.280e+00           2.280e+00             157.823          -1.436e+02             351.136           4.000e+01     
  20.000          90.000            2.233e+00           2.233e+00             157.890          -1.441e+02             344.627           4.000e+01     
  21.000          90.000            2.183e+00           2.183e+00             157.959          -1.445e+02             337.526           4.000e+01     
  22.000          90.000            2.130e+00           2.130e+00             158.029          -1.448e+02             330.023           4.000e+01     
  23.000          90.000            2.074e+00           2.074e+00             158.101          -1.449e+02             322.389           4.000e+01     
  24.000          90.000            2.016e+00           2.016e+00             158.174          -1.449e+02             314.931           4.000e+01     
  25.000          90.000            1.954e+00           1.954e+00             158.248          -1.447e+02             307.925           4.000e+01     
  26.000          90.000            1.891e+00           1.891e+00             158.324          -1.444e+02             301.565           4.000e+01     
  27.000          90.000            1.824e+00           1.824e+00             158.401          -1.440e+02             295.949           4.000e+01     
  28.000          90.000            1.755e+00           1.755e+00             158.479          -1.435e+02             291.092           4.000e+01     
  29.000          90.000            1.682e+00           1.682e+00             158.559          -1.431e+02             286.955           4.000e+01     
  30.000          90.000            1.608e+00           1.608e+00             158.640          -1.426e+02             283.472           4.000e+01     
  31.000          90.000            1.530e+00           1.530e+00             158.723          -1.422e+02             280.567           4.000e+01     
  32.000          90.000            1.450e+00           1.450e+00             158.807          -1.417e+02             278.166           4.000e+01     
  33.000          90.000            1.367e+00           1.367e+00             158.893          -1.413e+02             276.204           4.000e+01     
  34.000          90.000            1.282e+00           1.282e+00             158.981          -1.409e+02             274.623           4.000e+01     
  35.000          90.000            1.194e+00           1.194e+00             159.070          -1.405e+02             273.374           4.000e+01     
  36.000          90.000            1.103e+00           1.103e+00             159.160          -1.402e+02             272.416           4.000e+01     
  37.000          90.000            1.010e+00           1.010e+00             159.253          -1.398e+02             271.718           4.000e+01     
  38.000          90.000            9.139e-01           9.139e-01             159.347          -1.395e+02             271.250           4.000e+01     
  39.000          90.000            8.153e-01           8.153e-01             159.442          -1.392e+02             270.992           4.000e+01     
  40.000          90.000            7.141e-01           7.141e-01             159.539          -1.390e+02             270.924           4.000e+01     
  41.000          90.000            6.103e-01           6.103e-01             159.638          -1.387e+02             271.031           4.000e+01     
  42.000          90.000            5.040e-01           5.040e-01             159.739          -1.385e+02             271.301           4.000e+01     
  43.000          90.000            3.951e-01           3.951e-01             159.842          -1.383e+02             271.724           4.000e+01     
  44.000          90.000            2.836e-01           2.836e-01             159.946          -1.381e+02             272.289           4.000e+01     
  45.000          90.000            1.695e-01           1.695e-01             160.053          -1.379e+02             272.990           4.000e+01     
  46.000          90.000            5.291e-02           5.291e-02             160.161          -1.377e+02             273.819           4.000e+01     
  47.000          90.000           -6.624e-02          -6.624e-02             160.271          -1.375e+02             274.771           4.000e+01     
  48.000          90.000           -1.879e-01          -1.879e-01             160.383          -1.373e+02             275.840           4.000e+01     
  49.000          90.000           -3.122e-01          -3.122e-01             160.497          -1.372e+02             277.019           4.000e+01     
  50.000          90.000           -4.389e-01          -4.389e-01             160.613          -1.370e+02             278.303           4.000e+01     
  51.000          90.000           -5.682e-01          -5.682e-01             160.732          -1.369e+02             279.686           4.000e+01     
  52.000          90.000           -7.000e-01          -7.000e-01             160.852          -1.367e+02             281.162           4.000e+01     
  53.000          90.000           -8.344e-01          -8.344e-01             160.975          -1.366e+02             282.723           4.000e+01     
  54.000          90.000           -9.713e-01          -9.713e-01             161.100          -1.364e+02             284.363           4.000e+01     
  55.000          90.000           -1.111e+00          -1.111e+00             161.227          -1.362e+02             286.073           4.000e+01     
  56.000          90.000           -1.253e+00          -1.253e+00             161.357          -1.361e+02             287.845           4.000e+01     
  57.000          90.000           -1.397e+00          -1.397e+00             161.489          -1.359e+02             289.670           4.000e+01     
  58.000          90.000           -1.544e+00          -1.544e+00             161.623          -1.357e+02             291.539           4.000e+01     
  59.000          90.000           -1.694e+00          -1.694e+00             161.760          -1.355e+02             293.442           4.000e+01     
  60.000          90.000           -1.846e+00          -1.846e+00             161.899          -1.353e+02             295.369           4.000e+01     
  61.000          90.000           -2.001e+00          -2.001e+00             162.041          -1.351e+02             297.310           4.000e+01     
  62.000          90.000           -2.158e+00          -2.158e+00             162.186          -1.349e+02             299.256           4.000e+01     
  63.000          90.000           -2.318e+00          -2.318e+00             162.333          -1.347e+02             301.197           4.000e+01     
  64.000          90.000           -2.481e+00          -2.481e+00             162.483          -1.345e+02             303.125           4.000e+01     
  65.000          90.000           -2.646e+00          -2.646e+00             162.636          -1.343e+02             305.031           4.000e+01     
  66.000          90.000           -2.814e+00          -2.814e+00             162.791          -1.340e+02             306.908           4.000e+01     
  67.000          90.000           -2.985e+00          -2.985e+00             162.950          -1.338e+02             308.749           4.000e+01     
  68.000          90.000           -3.158e+00          -3.158e+00             163.111          -1.335e+02             310.548           4.000e+01     
  69.000          90.000           -3.335e+00          -3.335e+00             163.276          -1.333e+02             312.301           4.000e+01     
  70.000          90.000           -3.514e+00          -3.514e+00             163.443          -1.330e+02             314.003           4.000e+01     
  71.000          90.000           -3.696e+00          -3.696e+00             163.614          -1.328e+02             315.652           4.000e+01     
  72.000          90.000           -3.881e+00          -3.881e+00             163.788          -1.325e+02             317.246           4.000e+01     
  73.000          90.000           -4.069e+00          -4.069e+00             163.965          -1.322e+02             318.782           4.000e+01     
  74.000          90.000           -4.260e+00          -4.260e+00             164.146          -1.320e+02             320.261           4.000e+01     
  75.000          90.000           -4.455e+00          -4.455e+00             164.329          -1.317e+02             321.681           4.000e+01     
  76.000          90.000           -4.652e+00          -4.652e+00             164.516          -1.314e+02             323.043           4.000e+01     
  77.000          90.000           -4.853e+00          -4.853e+00             164.707          -1.312e+02             324.348           4.000e+01     
  78.000          90.000           -5.058e+00          -5.058e+00             164.901          -1.309e+02             325.597           4.000e+01     
  79.000          90.000           -5.266e+00          -5.266e+00             165.098          -1.306e+02             326.792           4.000e+01     
  80.000          90.000           -5.477e+00          -5.477e+00             165.299          -1.304e+02             327.933           4.000e+01     
  81.000          90.000           -5.693e+00          -5.693e+00             165.504          -1.301e+02             329.023           4.000e+01     
  82.000          90.000           -5.912e+00          -5.912e+00             165.713          -1.299e+02             330.064           4.000e+01     
  83.000          90.000           -6.135e+00          -6.135e+00             165.925          -1.296e+02             331.057           4.000e+01     
  84.000          90.000           -6.363e+00          -6.363e+00             166.141          -1.294e+02             332.004           4.000e+01     
  85.000          90.000           -6.595e+00          -6.595e+00             166.361          -1.291e+02             332.909           4.000e+01     
  86.000          90.000           -6.832e+00          -6.832e+00             166.584          -1.289e+02             333.772           4.000e+01     
  87.000          90.000           -7.073e+00          -7.073e+00             166.812          -1.287e+02             334.596           4.000e+01     
  88.000          90.000           -7.319e+00          -7.319e+00             167.043          -1.285e+02             335.383           4.000e+01     
  89.000          90.000           -7.571e+00          -7.571e+00             167.279          -1.282e+02             336.135           4.000e+01     
  90.000          90.000           -7.828e+00          -7.828e+00             167.518          -1.280e+02             336.854           4.000e+01     
  91.000          90.000           -8.092e+00          -8.092e+00             167.762          -1.278e+02             337.541           4.000e+01     
  92.000          90.000           -8.361e+00          -8.361e+00             168.010          -1.276e+02             338.199           4.000e+01     
  93.000          90.000           -8.637e+00          -8.637e+00             168.262          -1.274e+02             338.829           4.000e+01     
  94.000          90.000           -8.920e+00          -8.920e+00             168.519          -1.272e+02             339.433           4.000e+01     
  95.000          90.000           -9.210e+00          -9.210e+00             168.780          -1.271e+02             340.012           4.000e+01     
  96.000          90.000           -9.507e+00          -9.507e+00             169.045          -1.269e+02             340.569           4.000e+01     
  97.000          90.000           -9.814e+00          -9.814e+00             169.315          -1.267e+02             341.104           4.000e+01     
  98.000          90.000           -1.013e+01          -1.013e+01             169.589          -1.265e+02             341.619           4.000e+01     
  99.000          90.000           -1.045e+01          -1.045e+01             169.868          -1.264e+02             342.116           4.000e+01     
 100.000          90.000           -1.079e+01          -1.079e+01             170.152          -1.262e+02             342.596           4.000e+01     
 101.000          90.000           -1.113e+01          -1.113e+01             170.441          -1.261e+02             343.059           4.000e+01     
 102.000          90.000           -1.149e+01          -1.149e+01             170.735          -1.260e+02             343.508           4.000e+01     
 103.000          90.000           -1.186e+01          -1.186e+01             171.035          -1.258e+02             343.943           4.000e+01     
 104.000          90.000           -1.225e+01          -1.225e+01             171.340          -1.257e+02             344.365           4.000e+01     
 105.000          90.000           -1.265e+01          -1.265e+01             171.651          -1.256e+02             344.777           4.000e+01     
 106.000          90.000           -1.306e+01          -1.306e+01             171.968          -1.255e+02             345.178           4.000e+01     
 107.000          90.000           -1.350e+01          -1.350e+01             172.292          -1.254e+02             345.570           4.000e+01     
 108.000          90.000           -1.395e+01          -1.395e+01             172.623          -1.252e+02             345.954           4.000e+01     
 109.000          90.000           -1.443e+01          -1.443e+01             172.962          -1.252e+02             346.331           4.000e+01     
 110.000          90.000           -1.493e+01          -1.493e+01             173.309          -1.251e+02             346.701           4.000e+01     
 111.000          90.000           -1.546e+01          -1.546e+01             173.667          -1.250e+02             347.067           4.000e+01     
 112.000          90.000           -1.603e+01          -1.603e+01             174.035          -1.249e+02             347.428           4.000e+01     
 113.000          90.000           -1.662e+01          -1.662e+01             174.416          -1.248e+02             347.786           4.000e+01     
 114.000          90.000           -1.726e+01          -1.726e+01             174.812          -1.248e+02             348.142           4.000e+01     
 115.000          90.000           -1.794e+01          -1.794e+01             175.225          -1.247e+02             348.496           4.000e+01     
 116.000          90.000           -1.868e+01          -1.868e+01             175.660          -1.247e+02             348.850           4.000e+01     
 117.000          90.000           -1.949e+01          -1.949e+01             176.125          -1.246e+02             349.205           4.000e+01     
 118.000          90.000           -2.037e+01          -2.037e+01             176.622          -1.246e+02             349.561           4.000e+01     
 119.000          90.000           -2.135e+01          -2.135e+01             177.166          -1.246e+02             349.921           4.000e+01     
 120.000          90.000           -2.244e+01          -2.244e+01             177.775          -1.245e+02             350.283           4.000e+01     
 121.000          90.000           -2.369e+01          -2.369e+01             178.476          -1.245e+02             350.651           4.000e+01     
 122.000          90.000           -2.514e+01          -2.514e+01             179.318          -1.245e+02             351.024           4.000e+01     
 123.000          90.000           -2.687e+01          -2.687e+01             180.393          -1.245e+02             351.405           4.000e+01     
 124.000          90.000           -2.902e+01          -2.902e+01             181.894          -1.245e+02             351.793           4.000e+01     
 125.000          90.000           -3.187e+01          -3.187e+01             184.309          -1.245e+02             352.191           4.000e+01     
 126.000          90.000           -3.606e+01          -3.606e+01             189.326          -1.245e+02             352.600           4.000e+01     
 127.000          90.000           -4.379e+01          -4.379e+01             208.426          -1.246e+02             353.021           4.000e+01     
 128.000          90.000           -4.533e+01          -4.533e+01             319.839          -1.246e+02             353.456           4.000e+01     
 129.000          90.000           -3.682e+01          -3.682e+01             344.755          -1.246e+02             353.906           4.000e+01     
