Theta [deg.]  Phi   [deg.]  Abs(Gain)[dBi   ]   Abs(Theta)[dBi   ]  Phase(Theta)[deg.]  Abs(Phi  )[dBi   ]  Phase(Phi  )[deg.]  Ax.Ratio[dB    ]    
------------------------------------------------------------------------------------------------------------------------------------------------------
   0.000          90.000            2.301e+00           2.301e+00             180.874          -1.348e+02             152.596           4.000e+01     
   1.000          90.000            2.307e+00           2.307e+00             180.854          -1.348e+02             156.679           4.000e+01     
   2.000          90.000            2.309e+00           2.309e+00             180.836          -1.349e+02             160.790           4.000e+01     
   3.000          90.000            2.309e+00           2.309e+00             180.820          -1.349e+02             164.878           4.000e+01     
   4.000          90.000            2.305e+00           2.305e+00             180.806          -1.348e+02             168.897           4.000e+01     
   5.000          90.000            2.299e+00           2.299e+00             180.793          -1.347e+02             172.805           4.000e+01     
   6.000          90.000            2.290e+00           2.290e+00             180.782          -1.346e+02             176.565           4.000e+01     
   7.000          90.000            2.278e+00           2.278e+00             180.772          -1.345e+02             180.151           4.000e+01     
   8.000          90.000            2.263e+00           2.263e+00             180.764          -1.343e+02             183.541           4.000e+01     
   9.000          90.000            2.245e+00           2.245e+00             180.758          -1.341e+02             186.724           4.000e+01     
  10.000          90.000            2.224e+00           2.224e+00             180.754          -1.339e+02             189.694           4.000e+01     
  11.000          90.000            2.200e+00           2.200e+00             180.751          -1.337e+02             192.452           4.000e+01     
  12.000          90.000            2.174e+00           2.174e+00             180.750          -1.335e+02             195.001           4.000e+01     
  13.000          90.000            2.144e+00           2.144e+00             180.750          -1.333e+02             197.349           4.000e+01     
  14.000          90.000            2.112e+00           2.112e+00             180.752          -1.331e+02             199.507           4.000e+01     
  15.000          90.000            2.077e+00           2.077e+00             180.756          -1.329e+02             201.483           4.000e+01     
  16.000          90.000            2.039e+00           2.039e+00             180.761          -1.327e+02             203.290           4.000e+01     
  17.000          90.000            1.998e+00           1.998e+00             180.768          -1.325e+02             204.938           4.000e+01     
  18.000          90.000            1.954e+00           1.954e+00             180.777          -1.323e+02             206.439           4.000e+01     
  19.000          90.000            1.907e+00           1.907e+00             180.787          -1.322e+02             207.801           4.000e+01     
  20.000          90.000            1.858e+00           1.858e+00             180.799          -1.320e+02             209.035           4.000e+01     
  21.000          90.000            1.806e+00           1.806e+00             180.813          -1.319e+02             210.149           4.000e+01     
  22.000          90.000            1.750e+00           1.750e+00             180.828          -1.317e+02             211.151           4.000e+01     
  23.000          90.000            1.693e+00           1.693e+00             180.844          -1.316e+02             212.047           4.000e+01     
  24.000          90.000            1.632e+00           1.632e+00             180.863          -1.315e+02             212.844           4.000e+01     
  25.000          90.000            1.569e+00           1.569e+00             180.882          -1.315e+02             213.546           4.000e+01     
  26.000          90.000            1.503e+00           1.503e+00             180.904          -1.314e+02             214.158           4.000e+01     
  27.000          90.000            1.434e+00           1.434e+00             180.927          -1.313e+02             214.684           4.000e+01     
  28.000          90.000            1.362e+00           1.362e+00             180.951          -1.313e+02             215.127           4.000e+01     
  29.000          90.000            1.288e+00           1.288e+00             180.977          -1.313e+02             215.488           4.000e+01     
  30.000          90.000            1.212e+00           1.212e+00             181.005          -1.313e+02             215.770           4.000e+01     
  31.000          90.000            1.132e+00           1.132e+00             181.034          -1.313e+02             215.974           4.000e+01     
  32.000          90.000            1.050e+00           1.050e+00             181.064          -1.313e+02             216.099           4.000e+01     
  33.000          90.000            9.655e-01           9.655e-01             181.096          -1.313e+02             216.144           4.000e+01     
  34.000          90.000            8.783e-01           8.783e-01             181.130          -1.314e+02             216.110           4.000e+01     
  35.000          90.000            7.886e-01           7.886e-01             181.164          -1.314e+02             215.994           4.000e+01     
  36.000          90.000            6.964e-01           6.964e-01             181.201          -1.315e+02             215.792           4.000e+01     
  37.000          90.000            6.017e-01           6.017e-01             181.239          -1.316e+02             215.503           4.000e+01     
  38.000          90.000            5.045e-01           5.045e-01             181.278          -1.318e+02             215.120           4.000e+01     
  39.000          90.000            4.049e-01           4.049e-01             181.319          -1.319e+02             214.640           4.000e+01     
  40.000          90.000            3.028e-01           3.028e-01             181.361          -1.320e+02             214.054           4.000e+01     
  41.000          90.000            1.984e-01           1.984e-01             181.405          -1.322e+02             213.356           4.000e+01     
  42.000          90.000            9.160e-02           9.160e-02             181.450          -1.324e+02             212.536           4.000e+01     
  43.000          90.000           -1.755e-02          -1.755e-02             181.497          -1.326e+02             211.583           4.000e+01     
  44.000          90.000           -1.290e-01          -1.290e-01             181.545          -1.328e+02             210.486           4.000e+01     
  45.000          90.000           -2.428e-01          -2.428e-01             181.594          -1.330e+02             209.231           4.000e+01     
  46.000          90.000           -3.588e-01          -3.588e-01             181.645          -1.333e+02             207.801           4.000e+01     
  47.000          90.000           -4.771e-01          -4.771e-01             181.697          -1.335e+02             206.179           4.000e+01     
  48.000          90.000           -5.976e-01          -5.976e-01             181.751          -1.338e+02             204.345           4.000e+01     
  49.000          90.000           -7.202e-01          -7.202e-01             181.806          -1.340e+02             202.278           4.000e+01     
  50.000          90.000           -8.451e-01          -8.451e-01             181.863          -1.343e+02             199.956           4.000e+01     
  51.000          90.000           -9.721e-01          -9.721e-01             181.920          -1.346e+02             197.354           4.000e+01     
  52.000          90.000           -1.101e+00          -1.101e+00             181.979          -1.349e+02             194.452           4.000e+01     
  53.000          90.000           -1.232e+00          -1.232e+00             182.040          -1.352e+02             191.231           4.000e+01     
  54.000          90.000           -1.366e+00          -1.366e+00             182.102          -1.354e+02             187.678           4.000e+01     
  55.000          90.000           -1.501e+00          -1.501e+00             182.165          -1.356e+02             183.790           4.000e+01     
  56.000          90.000           -1.638e+00          -1.638e+00             182.229          -1.358e+02             179.578           4.000e+01     
  57.000          90.000           -1.778e+00          -1.778e+00             182.295          -1.360e+02             175.069           4.000e+01     
  58.000          90.000           -1.919e+00          -1.919e+00             182.361          -1.361e+02             170.313           4.000e+01     
  59.000          90.000           -2.063e+00          -2.063e+00             182.430          -1.361e+02             165.374           4.000e+01     
  60.000          90.000           -2.208e+00          -2.208e+00             182.499          -1.360e+02             160.341           4.000e+01     
  61.000          90.000           -2.355e+00          -2.355e+00             182.569          -1.359e+02             155.305           4.000e+01     
  62.000          90.000           -2.505e+00          -2.505e+00             182.641          -1.357e+02             150.358           4.000e+01     
  63.000          90.000           -2.656e+00          -2.656e+00             182.714          -1.355e+02             145.585           4.000e+01     
  64.000          90.000           -2.809e+00          -2.809e+00             182.788          -1.352e+02             141.051           4.000e+01     
  65.000          90.000           -2.964e+00          -2.964e+00             182.862          -1.348e+02             136.804           4.000e+01     
  66.000          90.000           -3.121e+00          -3.121e+00             182.938          -1.344e+02             132.870           4.000e+01     
  67.000          90.000           -3.280e+00          -3.280e+00             183.015          -1.340e+02             129.259           4.000e+01     
  68.000          90.000           -3.441e+00          -3.441e+00             183.093          -1.336e+02             125.968           4.000e+01     
  69.000          90.000           -3.604e+00          -3.604e+00             183.171          -1.331e+02             122.983           4.000e+01     
  70.000          90.000           -3.769e+00          -3.769e+00             183.251          -1.327e+02             120.285           4.000e+01     
  71.000          90.000           -3.936e+00          -3.936e+00             183.331          -1.322e+02             117.850           4.000e+01     
  72.000          90.000           -4.105e+00          -4.105e+00             183.411          -1.318e+02             115.656           4.000e+01     
  73.000          90.000           -4.275e+00          -4.275e+00             183.492          -1.313e+02             113.680           4.000e+01     
  74.000          90.000           -4.448e+00          -4.448e+00             183.574          -1.309e+02             111.899           4.000e+01     
  75.000          90.000           -4.623e+00          -4.623e+00             183.655          -1.304e+02             110.294           4.000e+01     
  76.000          90.000           -4.800e+00          -4.800e+00             183.738          -1.300e+02             108.846           4.000e+01     
  77.000          90.000           -4.979e+00          -4.979e+00             183.820          -1.296e+02             107.538           4.000e+01     
  78.000          90.000           -5.161e+00          -5.161e+00             183.902          -1.292e+02             106.355           4.000e+01     
  79.000          90.000           -5.344e+00          -5.344e+00             183.984          -1.289e+02             105.285           4.000e+01     
  80.000          90.000           -5.530e+00          -5.530e+00             184.065          -1.285e+02             104.315           4.000e+01     
  81.000          90.000           -5.719e+00          -5.719e+00             184.146          -1.281e+02             103.436           4.000e+01     
  82.000          90.000           -5.909e+00          -5.909e+00             184.226          -1.278e+02             102.637           4.000e+01     
  83.000          90.000           -6.103e+00          -6.103e+00             184.306          -1.275e+02             101.912           4.000e+01     
  84.000          90.000           -6.299e+00          -6.299e+00             184.384          -1.272e+02             101.252           4.000e+01     
  85.000          90.000           -6.497e+00          -6.497e+00             184.461          -1.268e+02             100.652           4.000e+01     
  86.000          90.000           -6.699e+00          -6.699e+00             184.536          -1.265e+02             100.106           4.000e+01     
  87.000          90.000           -6.903e+00          -6.903e+00             184.609          -1.263e+02              99.609           4.000e+01     
  88.000          90.000           -7.111e+00          -7.111e+00             184.680          -1.260e+02              99.156           4.000e+01     
  89.000          90.000           -7.322e+00          -7.322e+00             184.748          -1.257e+02              98.744           4.000e+01     
  90.000          90.000           -7.536e+00          -7.536e+00             184.814          -1.254e+02              98.369           4.000e+01     
  91.000          90.000           -7.754e+00          -7.754e+00             184.876          -1.252e+02              98.027           4.000e+01     
  92.000          90.000           -7.975e+00          -7.975e+00             184.934          -1.249e+02              97.717           4.000e+01     
  93.000          90.000           -8.201e+00          -8.201e+00             184.988          -1.247e+02              97.435           4.000e+01     
  94.000          90.000           -8.430e+00          -8.430e+00             185.037          -1.245e+02              97.179           4.000e+01     
  95.000          90.000           -8.664e+00          -8.664e+00             185.081          -1.243e+02              96.947           4.000e+01     
  96.000          90.000           -8.903e+00          -8.903e+00             185.119          -1.241e+02              96.738           4.000e+01     
  97.000          90.000           -9.146e+00          -9.146e+00             185.150          -1.238e+02              96.548           4.000e+01     
  98.000          90.000           -9.395e+00          -9.395e+00             185.174          -1.236e+02              96.378           4.000e+01     
  99.000          90.000           -9.649e+00          -9.649e+00             185.190          -1.235e+02              96.225           4.000e+01     
 100.000          90.000           -9.909e+00          -9.909e+00             185.196          -1.233e+02              96.088           4.000e+01     
 101.000          90.000           -1.018e+01          -1.018e+01             185.192          -1.231e+02              95.966           4.000e+01     
 102.000          90.000           -1.045e+01          -1.045e+01             185.176          -1.229e+02              95.858           4.000e+01     
 103.000          90.000           -1.073e+01          -1.073e+01             185.148          -1.228e+02              95.762           4.000e+01     
 104.000          90.000           -1.102e+01          -1.102e+01             185.106          -1.226e+02              95.679           4.000e+01     
 105.000          90.000           -1.131e+01          -1.131e+01             185.048          -1.224e+02              95.606           4.000e+01     
 106.000          90.000           -1.162e+01          -1.162e+01             184.973          -1.223e+02              95.544           4.000e+01     
 107.000          90.000           -1.193e+01          -1.193e+01             184.877          -1.222e+02              95.491           4.000e+01     
 108.000          90.000           -1.225e+01          -1.225e+01             184.760          -1.220e+02              95.447           4.000e+01     
 109.000          90.000           -1.259e+01          -1.259e+01             184.618          -1.219e+02              95.412           4.000e+01     
 110.000          90.000           -1.294e+01          -1.294e+01             184.448          -1.218e+02              95.384           4.000e+01     
 111.000          90.000           -1.330e+01          -1.330e+01             184.247          -1.216e+02              95.363           4.000e+01     
 112.000          90.000           -1.367e+01          -1.367e+01             184.010          -1.215e+02              95.348           4.000e+01     
 113.000          90.000           -1.406e+01          -1.406e+01             183.732          -1.214e+02              95.339           4.000e+01     
 114.000          90.000           -1.446e+01          -1.446e+01             183.408          -1.213e+02              95.337           4.000e+01     
 115.000          90.000           -1.488e+01          -1.488e+01             183.031          -1.212e+02              95.339           4.000e+01     
 116.000          90.000           -1.532e+01          -1.532e+01             182.592          -1.211e+02              95.346           4.000e+01     
 117.000          90.000           -1.579e+01          -1.579e+01             182.082          -1.211e+02              95.357           4.000e+01     
 118.000          90.000           -1.627e+01          -1.627e+01             181.488          -1.210e+02              95.373           4.000e+01     
 119.000          90.000           -1.678e+01          -1.678e+01             180.797          -1.209e+02              95.392           4.000e+01     
 120.000          90.000           -1.732e+01          -1.732e+01             179.989          -1.208e+02              95.414           4.000e+01     
 121.000          90.000           -1.789e+01          -1.789e+01             179.042          -1.208e+02              95.440           4.000e+01     
 122.000          90.000           -1.849e+01          -1.849e+01             177.927          -1.207e+02              95.468           4.000e+01     
 123.000          90.000           -1.914e+01          -1.914e+01             176.607          -1.207e+02              95.499           4.000e+01     
 124.000          90.000           -1.982e+01          -1.982e+01             175.035          -1.206e+02              95.532           4.000e+01     
 125.000          90.000           -2.055e+01          -2.055e+01             173.148          -1.206e+02              95.566           4.000e+01     
 126.000          90.000           -2.133e+01          -2.133e+01             170.865          -1.205e+02              95.603           4.000e+01     
 127.000          90.000           -2.216e+01          -2.216e+01             168.074          -1.205e+02              95.641           4.000e+01     
 128.000          90.000           -2.305e+01          -2.305e+01             164.631          -1.205e+02              95.680           4.000e+01     
 129.000          90.000           -2.399e+01          -2.399e+01             160.339          -1.205e+02              95.720           4.000e+01     
