Theta [deg.]  Phi   [deg.]  Abs(Dir.)[dBi   ]   Abs(Theta)[dBi   ]  Phase(Theta)[deg.]  Abs(Phi  )[dBi   ]  Phase(Phi  )[deg.]  Ax.Ratio[dB    ]    
------------------------------------------------------------------------------------------------------------------------------------------------------
   0.000          90.000            6.448e+00           6.448e+00             157.151          -1.272e+02              91.760           4.000e+01     
   1.000          90.000            6.452e+00           6.452e+00             157.148          -1.275e+02              94.005           4.000e+01     
   2.000          90.000            6.453e+00           6.453e+00             157.146          -1.278e+02              96.395           4.000e+01     
   3.000          90.000            6.451e+00           6.451e+00             157.146          -1.280e+02              98.931           4.000e+01     
   4.000          90.000            6.446e+00           6.446e+00             157.148          -1.283e+02             101.608           4.000e+01     
   5.000          90.000            6.438e+00           6.438e+00             157.152          -1.285e+02             104.420           4.000e+01     
   6.000          90.000            6.427e+00           6.427e+00             157.158          -1.288e+02             107.357           4.000e+01     
   7.000          90.000            6.414e+00           6.414e+00             157.166          -1.290e+02             110.405           4.000e+01     
   8.000          90.000            6.397e+00           6.397e+00             157.176          -1.292e+02             113.544           4.000e+01     
   9.000          90.000            6.378e+00           6.378e+00             157.188          -1.293e+02             116.752           4.000e+01     
  10.000          90.000            6.355e+00           6.355e+00             157.202          -1.295e+02             120.001           4.000e+01     
  11.000          90.000            6.330e+00           6.330e+00             157.218          -1.296e+02             123.263           4.000e+01     
  12.000          90.000            6.302e+00           6.302e+00             157.236          -1.296e+02             126.509           4.000e+01     
  13.000          90.000            6.271e+00           6.271e+00             157.256          -1.297e+02             129.707           4.000e+01     
  14.000          90.000            6.237e+00           6.237e+00             157.278          -1.297e+02             132.830           4.000e+01     
  15.000          90.000            6.200e+00           6.200e+00             157.302          -1.297e+02             135.853           4.000e+01     
  16.000          90.000            6.160e+00           6.160e+00             157.328          -1.297e+02             138.753           4.000e+01     
  17.000          90.000            6.118e+00           6.118e+00             157.356          -1.296e+02             141.514           4.000e+01     
  18.000          90.000            6.072e+00           6.072e+00             157.386          -1.296e+02             144.121           4.000e+01     
  19.000          90.000            6.024e+00           6.024e+00             157.418          -1.295e+02             146.565           4.000e+01     
  20.000          90.000            5.973e+00           5.973e+00             157.452          -1.294e+02             148.842           4.000e+01     
  21.000          90.000            5.919e+00           5.919e+00             157.488          -1.294e+02             150.947           4.000e+01     
  22.000          90.000            5.862e+00           5.862e+00             157.527          -1.293e+02             152.882           4.000e+01     
  23.000          90.000            5.803e+00           5.803e+00             157.567          -1.292e+02             154.648           4.000e+01     
  24.000          90.000            5.741e+00           5.741e+00             157.609          -1.291e+02             156.249           4.000e+01     
  25.000          90.000            5.676e+00           5.676e+00             157.654          -1.290e+02             157.690           4.000e+01     
  26.000          90.000            5.608e+00           5.608e+00             157.700          -1.290e+02             158.974           4.000e+01     
  27.000          90.000            5.538e+00           5.538e+00             157.749          -1.289e+02             160.107           4.000e+01     
  28.000          90.000            5.465e+00           5.465e+00             157.799          -1.288e+02             161.095           4.000e+01     
  29.000          90.000            5.389e+00           5.389e+00             157.852          -1.288e+02             161.941           4.000e+01     
  30.000          90.000            5.311e+00           5.311e+00             157.907          -1.287e+02             162.650           4.000e+01     
  31.000          90.000            5.230e+00           5.230e+00             157.964          -1.287e+02             163.225           4.000e+01     
  32.000          90.000            5.146e+00           5.146e+00             158.023          -1.287e+02             163.670           4.000e+01     
  33.000          90.000            5.060e+00           5.060e+00             158.084          -1.287e+02             163.986           4.000e+01     
  34.000          90.000            4.971e+00           4.971e+00             158.147          -1.287e+02             164.175           4.000e+01     
  35.000          90.000            4.880e+00           4.880e+00             158.213          -1.287e+02             164.238           4.000e+01     
  36.000          90.000            4.787e+00           4.787e+00             158.281          -1.288e+02             164.174           4.000e+01     
  37.000          90.000            4.690e+00           4.690e+00             158.350          -1.288e+02             163.983           4.000e+01     
  38.000          90.000            4.592e+00           4.592e+00             158.422          -1.289e+02             163.663           4.000e+01     
  39.000          90.000            4.491e+00           4.491e+00             158.497          -1.289e+02             163.210           4.000e+01     
  40.000          90.000            4.388e+00           4.388e+00             158.573          -1.290e+02             162.621           4.000e+01     
  41.000          90.000            4.282e+00           4.282e+00             158.652          -1.291e+02             161.893           4.000e+01     
  42.000          90.000            4.174e+00           4.174e+00             158.733          -1.292e+02             161.018           4.000e+01     
  43.000          90.000            4.064e+00           4.064e+00             158.817          -1.293e+02             159.992           4.000e+01     
  44.000          90.000            3.951e+00           3.951e+00             158.902          -1.294e+02             158.808           4.000e+01     
  45.000          90.000            3.836e+00           3.836e+00             158.990          -1.296e+02             157.457           4.000e+01     
  46.000          90.000            3.720e+00           3.720e+00             159.081          -1.297e+02             155.933           4.000e+01     
  47.000          90.000            3.600e+00           3.600e+00             159.174          -1.298e+02             154.227           4.000e+01     
  48.000          90.000            3.479e+00           3.479e+00             159.269          -1.300e+02             152.332           4.000e+01     
  49.000          90.000            3.356e+00           3.356e+00             159.367          -1.301e+02             150.241           4.000e+01     
  50.000          90.000            3.230e+00           3.230e+00             159.467          -1.303e+02             147.950           4.000e+01     
  51.000          90.000            3.103e+00           3.103e+00             159.570          -1.304e+02             145.455           4.000e+01     
  52.000          90.000            2.973e+00           2.973e+00             159.676          -1.305e+02             142.756           4.000e+01     
  53.000          90.000            2.842e+00           2.842e+00             159.784          -1.306e+02             139.857           4.000e+01     
  54.000          90.000            2.709e+00           2.709e+00             159.894          -1.307e+02             136.771           4.000e+01     
  55.000          90.000            2.573e+00           2.573e+00             160.007          -1.307e+02             133.512           4.000e+01     
  56.000          90.000            2.436e+00           2.436e+00             160.123          -1.308e+02             130.102           4.000e+01     
  57.000          90.000            2.297e+00           2.297e+00             160.242          -1.308e+02             126.569           4.000e+01     
  58.000          90.000            2.156e+00           2.156e+00             160.364          -1.307e+02             122.947           4.000e+01     
  59.000          90.000            2.013e+00           2.013e+00             160.488          -1.306e+02             119.274           4.000e+01     
  60.000          90.000            1.869e+00           1.869e+00             160.615          -1.305e+02             115.590           4.000e+01     
  61.000          90.000            1.722e+00           1.722e+00             160.745          -1.304e+02             111.934           4.000e+01     
  62.000          90.000            1.574e+00           1.574e+00             160.878          -1.302e+02             108.345           4.000e+01     
  63.000          90.000            1.424e+00           1.424e+00             161.013          -1.299e+02             104.855           4.000e+01     
  64.000          90.000            1.273e+00           1.273e+00             161.152          -1.297e+02             101.492           4.000e+01     
  65.000          90.000            1.119e+00           1.119e+00             161.294          -1.294e+02              98.278           4.000e+01     
  66.000          90.000            9.645e-01           9.645e-01             161.439          -1.291e+02              95.228           4.000e+01     
  67.000          90.000            8.079e-01           8.079e-01             161.586          -1.288e+02              92.349           4.000e+01     
  68.000          90.000            6.496e-01           6.496e-01             161.737          -1.285e+02              89.647           4.000e+01     
  69.000          90.000            4.897e-01           4.897e-01             161.891          -1.281e+02              87.120           4.000e+01     
  70.000          90.000            3.281e-01           3.281e-01             162.048          -1.278e+02              84.764           4.000e+01     
  71.000          90.000            1.648e-01           1.648e-01             162.209          -1.274e+02              82.573           4.000e+01     
  72.000          90.000           -1.227e-04          -1.227e-04             162.372          -1.271e+02              80.539           4.000e+01     
  73.000          90.000           -1.667e-01          -1.667e-01             162.539          -1.267e+02              78.653           4.000e+01     
  74.000          90.000           -3.350e-01          -3.350e-01             162.709          -1.264e+02              76.905           4.000e+01     
  75.000          90.000           -5.049e-01          -5.049e-01             162.882          -1.260e+02              75.286           4.000e+01     
  76.000          90.000           -6.766e-01          -6.766e-01             163.058          -1.257e+02              73.786           4.000e+01     
  77.000          90.000           -8.500e-01          -8.500e-01             163.238          -1.253e+02              72.396           4.000e+01     
  78.000          90.000           -1.025e+00          -1.025e+00             163.421          -1.250e+02              71.108           4.000e+01     
  79.000          90.000           -1.202e+00          -1.202e+00             163.607          -1.247e+02              69.914           4.000e+01     
  80.000          90.000           -1.381e+00          -1.381e+00             163.796          -1.244e+02              68.805           4.000e+01     
  81.000          90.000           -1.562e+00          -1.562e+00             163.989          -1.241e+02              67.776           4.000e+01     
  82.000          90.000           -1.744e+00          -1.744e+00             164.185          -1.238e+02              66.820           4.000e+01     
  83.000          90.000           -1.929e+00          -1.929e+00             164.384          -1.235e+02              65.931           4.000e+01     
  84.000          90.000           -2.115e+00          -2.115e+00             164.586          -1.232e+02              65.104           4.000e+01     
  85.000          90.000           -2.304e+00          -2.304e+00             164.792          -1.229e+02              64.333           4.000e+01     
  86.000          90.000           -2.495e+00          -2.495e+00             165.000          -1.227e+02              63.616           4.000e+01     
  87.000          90.000           -2.688e+00          -2.688e+00             165.212          -1.224e+02              62.946           4.000e+01     
  88.000          90.000           -2.884e+00          -2.884e+00             165.427          -1.222e+02              62.322           4.000e+01     
  89.000          90.000           -3.082e+00          -3.082e+00             165.645          -1.219e+02              61.739           4.000e+01     
  90.000          90.000           -3.283e+00          -3.283e+00             165.866          -1.217e+02              61.194           4.000e+01     
  91.000          90.000           -3.487e+00          -3.487e+00             166.090          -1.215e+02              60.685           4.000e+01     
  92.000          90.000           -3.693e+00          -3.693e+00             166.317          -1.212e+02              60.210           4.000e+01     
  93.000          90.000           -3.903e+00          -3.903e+00             166.547          -1.210e+02              59.766           4.000e+01     
  94.000          90.000           -4.115e+00          -4.115e+00             166.779          -1.208e+02              59.350           4.000e+01     
  95.000          90.000           -4.331e+00          -4.331e+00             167.015          -1.206e+02              58.961           4.000e+01     
  96.000          90.000           -4.551e+00          -4.551e+00             167.253          -1.204e+02              58.598           4.000e+01     
  97.000          90.000           -4.775e+00          -4.775e+00             167.494          -1.202e+02              58.258           4.000e+01     
  98.000          90.000           -5.002e+00          -5.002e+00             167.737          -1.201e+02              57.940           4.000e+01     
  99.000          90.000           -5.234e+00          -5.234e+00             167.983          -1.199e+02              57.643           4.000e+01     
 100.000          90.000           -5.471e+00          -5.471e+00             168.231          -1.197e+02              57.365           4.000e+01     
 101.000          90.000           -5.712e+00          -5.712e+00             168.482          -1.196e+02              57.106           4.000e+01     
 102.000          90.000           -5.959e+00          -5.959e+00             168.734          -1.194e+02              56.864           4.000e+01     
 103.000          90.000           -6.211e+00          -6.211e+00             168.989          -1.192e+02              56.638           4.000e+01     
 104.000          90.000           -6.470e+00          -6.470e+00             169.246          -1.191e+02              56.428           4.000e+01     
 105.000          90.000           -6.734e+00          -6.734e+00             169.505          -1.190e+02              56.232           4.000e+01     
 106.000          90.000           -7.006e+00          -7.006e+00             169.766          -1.188e+02              56.050           4.000e+01     
 107.000          90.000           -7.285e+00          -7.285e+00             170.029          -1.187e+02              55.881           4.000e+01     
 108.000          90.000           -7.572e+00          -7.572e+00             170.293          -1.186e+02              55.725           4.000e+01     
 109.000          90.000           -7.867e+00          -7.867e+00             170.559          -1.184e+02              55.580           4.000e+01     
 110.000          90.000           -8.172e+00          -8.172e+00             170.826          -1.183e+02              55.446           4.000e+01     
 111.000          90.000           -8.487e+00          -8.487e+00             171.095          -1.182e+02              55.323           4.000e+01     
 112.000          90.000           -8.812e+00          -8.812e+00             171.365          -1.181e+02              55.210           4.000e+01     
 113.000          90.000           -9.149e+00          -9.149e+00             171.637          -1.180e+02              55.106           4.000e+01     
 114.000          90.000           -9.499e+00          -9.499e+00             171.910          -1.179e+02              55.012           4.000e+01     
 115.000          90.000           -9.863e+00          -9.863e+00             172.183          -1.178e+02              54.926           4.000e+01     
 116.000          90.000           -1.024e+01          -1.024e+01             172.458          -1.178e+02              54.848           4.000e+01     
 117.000          90.000           -1.064e+01          -1.064e+01             172.733          -1.177e+02              54.778           4.000e+01     
 118.000          90.000           -1.105e+01          -1.105e+01             173.010          -1.176e+02              54.716           4.000e+01     
 119.000          90.000           -1.149e+01          -1.149e+01             173.287          -1.175e+02              54.660           4.000e+01     
 120.000          90.000           -1.194e+01          -1.194e+01             173.565          -1.175e+02              54.612           4.000e+01     
 121.000          90.000           -1.243e+01          -1.243e+01             173.843          -1.174e+02              54.569           4.000e+01     
 122.000          90.000           -1.294e+01          -1.294e+01             174.122          -1.174e+02              54.533           4.000e+01     
 123.000          90.000           -1.348e+01          -1.348e+01             174.402          -1.173e+02              54.502           4.000e+01     
 124.000          90.000           -1.405e+01          -1.405e+01             174.682          -1.173e+02              54.477           4.000e+01     
 125.000          90.000           -1.467e+01          -1.467e+01             174.963          -1.172e+02              54.457           4.000e+01     
 126.000          90.000           -1.534e+01          -1.534e+01             175.245          -1.172e+02              54.442           4.000e+01     
 127.000          90.000           -1.606e+01          -1.606e+01             175.527          -1.172e+02              54.432           4.000e+01     
 128.000          90.000           -1.684e+01          -1.684e+01             175.811          -1.171e+02              54.425           4.000e+01     
 129.000          90.000           -1.771e+01          -1.771e+01             176.095          -1.171e+02              54.423           4.000e+01     
