Theta [deg.]  Phi   [deg.]  Abs(Gain)[dBi   ]   Abs(Theta)[dBi   ]  Phase(Theta)[deg.]  Abs(Phi  )[dBi   ]  Phase(Phi  )[deg.]  Ax.Ratio[dB    ]    
------------------------------------------------------------------------------------------------------------------------------------------------------
   0.000          90.000            2.354e+00           2.354e+00             161.926          -1.407e+02              49.647           4.000e+01     
   1.000          90.000            2.360e+00           2.360e+00             161.983          -1.414e+02              49.780           4.000e+01     
   2.000          90.000            2.362e+00           2.362e+00             162.042          -1.422e+02              49.981           4.000e+01     
   3.000          90.000            2.362e+00           2.362e+00             162.101          -1.431e+02              50.268           4.000e+01     
   4.000          90.000            2.359e+00           2.359e+00             162.162          -1.441e+02              50.669           4.000e+01     
   5.000          90.000            2.353e+00           2.353e+00             162.223          -1.452e+02              51.221           4.000e+01     
   6.000          90.000            2.345e+00           2.345e+00             162.285          -1.465e+02              51.988           4.000e+01     
   7.000          90.000            2.333e+00           2.333e+00             162.347          -1.480e+02              53.082           4.000e+01     
   8.000          90.000            2.319e+00           2.319e+00             162.411          -1.498e+02              54.709           4.000e+01     
   9.000          90.000            2.301e+00           2.301e+00             162.475          -1.521e+02              57.317           4.000e+01     
  10.000          90.000            2.281e+00           2.281e+00             162.541          -1.550e+02              62.051           4.000e+01     
  11.000          90.000            2.259e+00           2.259e+00             162.607          -1.593e+02              72.840           4.000e+01     
  12.000          90.000            2.233e+00           2.233e+00             162.674          -1.652e+02             109.335           4.000e+01     
  13.000          90.000            2.204e+00           2.204e+00             162.742          -1.634e+02             179.550           4.000e+01     
  14.000          90.000            2.173e+00           2.173e+00             162.811          -1.580e+02             203.328           4.000e+01     
  15.000          90.000            2.139e+00           2.139e+00             162.881          -1.543e+02             211.428           4.000e+01     
  16.000          90.000            2.102e+00           2.102e+00             162.952          -1.518e+02             215.389           4.000e+01     
  17.000          90.000            2.062e+00           2.062e+00             163.024          -1.498e+02             217.762           4.000e+01     
  18.000          90.000            2.020e+00           2.020e+00             163.097          -1.483e+02             219.375           4.000e+01     
  19.000          90.000            1.974e+00           1.974e+00             163.171          -1.470e+02             220.574           4.000e+01     
  20.000          90.000            1.926e+00           1.926e+00             163.246          -1.459e+02             221.528           4.000e+01     
  21.000          90.000            1.875e+00           1.875e+00             163.322          -1.449e+02             222.331           4.000e+01     
  22.000          90.000            1.821e+00           1.821e+00             163.398          -1.441e+02             223.036           4.000e+01     
  23.000          90.000            1.765e+00           1.765e+00             163.476          -1.434e+02             223.679           4.000e+01     
  24.000          90.000            1.706e+00           1.706e+00             163.555          -1.427e+02             224.283           4.000e+01     
  25.000          90.000            1.644e+00           1.644e+00             163.635          -1.422e+02             224.866           4.000e+01     
  26.000          90.000            1.579e+00           1.579e+00             163.716          -1.417e+02             225.439           4.000e+01     
  27.000          90.000            1.512e+00           1.512e+00             163.798          -1.412e+02             226.013           4.000e+01     
  28.000          90.000            1.442e+00           1.442e+00             163.881          -1.408e+02             226.594           4.000e+01     
  29.000          90.000            1.369e+00           1.369e+00             163.965          -1.404e+02             227.190           4.000e+01     
  30.000          90.000            1.293e+00           1.293e+00             164.050          -1.401e+02             227.806           4.000e+01     
  31.000          90.000            1.215e+00           1.215e+00             164.137          -1.398e+02             228.446           4.000e+01     
  32.000          90.000            1.134e+00           1.134e+00             164.224          -1.395e+02             229.117           4.000e+01     
  33.000          90.000            1.051e+00           1.051e+00             164.312          -1.393e+02             229.822           4.000e+01     
  34.000          90.000            9.645e-01           9.645e-01             164.402          -1.391e+02             230.565           4.000e+01     
  35.000          90.000            8.757e-01           8.757e-01             164.492          -1.389e+02             231.352           4.000e+01     
  36.000          90.000            7.841e-01           7.841e-01             164.584          -1.387e+02             232.187           4.000e+01     
  37.000          90.000            6.900e-01           6.900e-01             164.677          -1.386e+02             233.073           4.000e+01     
  38.000          90.000            5.933e-01           5.933e-01             164.771          -1.384e+02             234.018           4.000e+01     
  39.000          90.000            4.939e-01           4.939e-01             164.866          -1.383e+02             235.025           4.000e+01     
  40.000          90.000            3.919e-01           3.919e-01             164.962          -1.383e+02             236.100           4.000e+01     
  41.000          90.000            2.873e-01           2.873e-01             165.060          -1.382e+02             237.248           4.000e+01     
  42.000          90.000            1.802e-01           1.802e-01             165.158          -1.381e+02             238.477           4.000e+01     
  43.000          90.000            7.043e-02           7.043e-02             165.258          -1.381e+02             239.791           4.000e+01     
  44.000          90.000           -4.189e-02          -4.189e-02             165.359          -1.381e+02             241.198           4.000e+01     
  45.000          90.000           -1.568e-01          -1.568e-01             165.461          -1.381e+02             242.705           4.000e+01     
  46.000          90.000           -2.742e-01          -2.742e-01             165.564          -1.381e+02             244.318           4.000e+01     
  47.000          90.000           -3.943e-01          -3.943e-01             165.669          -1.381e+02             246.045           4.000e+01     
  48.000          90.000           -5.168e-01          -5.168e-01             165.774          -1.381e+02             247.892           4.000e+01     
  49.000          90.000           -6.420e-01          -6.420e-01             165.881          -1.381e+02             249.867           4.000e+01     
  50.000          90.000           -7.696e-01          -7.696e-01             165.989          -1.382e+02             251.976           4.000e+01     
  51.000          90.000           -8.999e-01          -8.999e-01             166.099          -1.382e+02             254.223           4.000e+01     
  52.000          90.000           -1.033e+00          -1.033e+00             166.209          -1.382e+02             256.613           4.000e+01     
  53.000          90.000           -1.168e+00          -1.168e+00             166.321          -1.383e+02             259.148           4.000e+01     
  54.000          90.000           -1.306e+00          -1.306e+00             166.434          -1.383e+02             261.827           4.000e+01     
  55.000          90.000           -1.446e+00          -1.446e+00             166.548          -1.383e+02             264.648           4.000e+01     
  56.000          90.000           -1.589e+00          -1.589e+00             166.664          -1.383e+02             267.603           4.000e+01     
  57.000          90.000           -1.735e+00          -1.735e+00             166.781          -1.383e+02             270.683           4.000e+01     
  58.000          90.000           -1.883e+00          -1.883e+00             166.899          -1.382e+02             273.873           4.000e+01     
  59.000          90.000           -2.034e+00          -2.034e+00             167.018          -1.382e+02             277.155           4.000e+01     
  60.000          90.000           -2.188e+00          -2.188e+00             167.138          -1.381e+02             280.507           4.000e+01     
  61.000          90.000           -2.344e+00          -2.344e+00             167.260          -1.380e+02             283.904           4.000e+01     
  62.000          90.000           -2.503e+00          -2.503e+00             167.383          -1.378e+02             287.320           4.000e+01     
  63.000          90.000           -2.664e+00          -2.664e+00             167.507          -1.376e+02             290.726           4.000e+01     
  64.000          90.000           -2.828e+00          -2.828e+00             167.632          -1.374e+02             294.096           4.000e+01     
  65.000          90.000           -2.995e+00          -2.995e+00             167.758          -1.372e+02             297.403           4.000e+01     
  66.000          90.000           -3.165e+00          -3.165e+00             167.885          -1.370e+02             300.626           4.000e+01     
  67.000          90.000           -3.338e+00          -3.338e+00             168.014          -1.367e+02             303.744           4.000e+01     
  68.000          90.000           -3.513e+00          -3.513e+00             168.143          -1.364e+02             306.742           4.000e+01     
  69.000          90.000           -3.691e+00          -3.691e+00             168.274          -1.361e+02             309.610           4.000e+01     
  70.000          90.000           -3.873e+00          -3.873e+00             168.405          -1.358e+02             312.339           4.000e+01     
  71.000          90.000           -4.057e+00          -4.057e+00             168.537          -1.354e+02             314.924           4.000e+01     
  72.000          90.000           -4.244e+00          -4.244e+00             168.670          -1.351e+02             317.366           4.000e+01     
  73.000          90.000           -4.435e+00          -4.435e+00             168.804          -1.347e+02             319.666           4.000e+01     
  74.000          90.000           -4.629e+00          -4.629e+00             168.938          -1.344e+02             321.826           4.000e+01     
  75.000          90.000           -4.826e+00          -4.826e+00             169.073          -1.341e+02             323.852           4.000e+01     
  76.000          90.000           -5.027e+00          -5.027e+00             169.209          -1.337e+02             325.750           4.000e+01     
  77.000          90.000           -5.231e+00          -5.231e+00             169.345          -1.334e+02             327.526           4.000e+01     
  78.000          90.000           -5.439e+00          -5.439e+00             169.481          -1.330e+02             329.186           4.000e+01     
  79.000          90.000           -5.650e+00          -5.650e+00             169.617          -1.327e+02             330.739           4.000e+01     
  80.000          90.000           -5.866e+00          -5.866e+00             169.753          -1.323e+02             332.191           4.000e+01     
  81.000          90.000           -6.085e+00          -6.085e+00             169.888          -1.320e+02             333.549           4.000e+01     
  82.000          90.000           -6.309e+00          -6.309e+00             170.023          -1.317e+02             334.819           4.000e+01     
  83.000          90.000           -6.537e+00          -6.537e+00             170.158          -1.314e+02             336.008           4.000e+01     
  84.000          90.000           -6.769e+00          -6.769e+00             170.292          -1.311e+02             337.121           4.000e+01     
  85.000          90.000           -7.007e+00          -7.007e+00             170.424          -1.308e+02             338.164           4.000e+01     
  86.000          90.000           -7.249e+00          -7.249e+00             170.555          -1.305e+02             339.143           4.000e+01     
  87.000          90.000           -7.496e+00          -7.496e+00             170.684          -1.302e+02             340.061           4.000e+01     
  88.000          90.000           -7.749e+00          -7.749e+00             170.811          -1.299e+02             340.924           4.000e+01     
  89.000          90.000           -8.007e+00          -8.007e+00             170.935          -1.296e+02             341.736           4.000e+01     
  90.000          90.000           -8.272e+00          -8.272e+00             171.056          -1.294e+02             342.500           4.000e+01     
  91.000          90.000           -8.543e+00          -8.543e+00             171.174          -1.291e+02             343.220           4.000e+01     
  92.000          90.000           -8.820e+00          -8.820e+00             171.287          -1.289e+02             343.899           4.000e+01     
  93.000          90.000           -9.105e+00          -9.105e+00             171.395          -1.286e+02             344.541           4.000e+01     
  94.000          90.000           -9.397e+00          -9.397e+00             171.498          -1.284e+02             345.148           4.000e+01     
  95.000          90.000           -9.697e+00          -9.697e+00             171.595          -1.282e+02             345.723           4.000e+01     
  96.000          90.000           -1.001e+01          -1.001e+01             171.684          -1.280e+02             346.268           4.000e+01     
  97.000          90.000           -1.032e+01          -1.032e+01             171.764          -1.278e+02             346.786           4.000e+01     
  98.000          90.000           -1.065e+01          -1.065e+01             171.835          -1.276e+02             347.278           4.000e+01     
  99.000          90.000           -1.099e+01          -1.099e+01             171.895          -1.274e+02             347.747           4.000e+01     
 100.000          90.000           -1.134e+01          -1.134e+01             171.943          -1.272e+02             348.194           4.000e+01     
 101.000          90.000           -1.170e+01          -1.170e+01             171.976          -1.270e+02             348.621           4.000e+01     
 102.000          90.000           -1.207e+01          -1.207e+01             171.992          -1.268e+02             349.030           4.000e+01     
 103.000          90.000           -1.246e+01          -1.246e+01             171.989          -1.267e+02             349.422           4.000e+01     
 104.000          90.000           -1.287e+01          -1.287e+01             171.964          -1.265e+02             349.798           4.000e+01     
 105.000          90.000           -1.329e+01          -1.329e+01             171.914          -1.264e+02             350.160           4.000e+01     
 106.000          90.000           -1.373e+01          -1.373e+01             171.834          -1.262e+02             350.510           4.000e+01     
 107.000          90.000           -1.419e+01          -1.419e+01             171.719          -1.261e+02             350.847           4.000e+01     
 108.000          90.000           -1.467e+01          -1.467e+01             171.564          -1.260e+02             351.174           4.000e+01     
 109.000          90.000           -1.518e+01          -1.518e+01             171.360          -1.258e+02             351.492           4.000e+01     
 110.000          90.000           -1.571e+01          -1.571e+01             171.099          -1.257e+02             351.801           4.000e+01     
 111.000          90.000           -1.628e+01          -1.628e+01             170.770          -1.256e+02             352.103           4.000e+01     
 112.000          90.000           -1.688e+01          -1.688e+01             170.357          -1.255e+02             352.398           4.000e+01     
 113.000          90.000           -1.752e+01          -1.752e+01             169.841          -1.254e+02             352.688           4.000e+01     
 114.000          90.000           -1.821e+01          -1.821e+01             169.198          -1.253e+02             352.973           4.000e+01     
 115.000          90.000           -1.895e+01          -1.895e+01             168.395          -1.252e+02             353.254           4.000e+01     
 116.000          90.000           -1.975e+01          -1.975e+01             167.386          -1.251e+02             353.533           4.000e+01     
 117.000          90.000           -2.062e+01          -2.062e+01             166.111          -1.251e+02             353.809           4.000e+01     
 118.000          90.000           -2.157e+01          -2.157e+01             164.477          -1.250e+02             354.084           4.000e+01     
 119.000          90.000           -2.262e+01          -2.262e+01             162.354          -1.250e+02             354.359           4.000e+01     
 120.000          90.000           -2.379e+01          -2.379e+01             159.539          -1.249e+02             354.635           4.000e+01     
 121.000          90.000           -2.510e+01          -2.510e+01             155.715          -1.249e+02             354.912           4.000e+01     
 122.000          90.000           -2.655e+01          -2.655e+01             150.369          -1.248e+02             355.191           4.000e+01     
 123.000          90.000           -2.815e+01          -2.815e+01             142.668          -1.248e+02             355.473           4.000e+01     
 124.000          90.000           -2.979e+01          -2.979e+01             131.360          -1.248e+02             355.760           4.000e+01     
 125.000          90.000           -3.118e+01          -3.118e+01             115.164          -1.247e+02             356.051           4.000e+01     
 126.000          90.000           -3.175e+01          -3.175e+01              94.726          -1.247e+02             356.349           4.000e+01     
 127.000          90.000           -3.116e+01          -3.116e+01              74.426          -1.247e+02             356.653           4.000e+01     
 128.000          90.000           -2.979e+01          -2.979e+01              58.495          -1.247e+02             356.965           4.000e+01     
 129.000          90.000           -2.819e+01          -2.819e+01              47.408          -1.247e+02             357.286           4.000e+01     
