Theta [deg.]  Phi   [deg.]  Abs(Gain)[dBi   ]   Abs(Theta)[dBi   ]  Phase(Theta)[deg.]  Abs(Phi  )[dBi   ]  Phase(Phi  )[deg.]  Ax.Ratio[dB    ]    
------------------------------------------------------------------------------------------------------------------------------------------------------
   0.000          90.000            2.815e+00           2.815e+00             273.482          -1.267e+02             170.937           4.000e+01     
   1.000          90.000            2.822e+00           2.822e+00             273.521          -1.270e+02             170.200           4.000e+01     
   2.000          90.000            2.826e+00           2.826e+00             273.562          -1.273e+02             169.435           4.000e+01     
   3.000          90.000            2.828e+00           2.828e+00             273.604          -1.276e+02             168.641           4.000e+01     
   4.000          90.000            2.827e+00           2.827e+00             273.647          -1.279e+02             167.814           4.000e+01     
   5.000          90.000            2.823e+00           2.823e+00             273.691          -1.282e+02             166.951           4.000e+01     
   6.000          90.000            2.816e+00           2.816e+00             273.736          -1.285e+02             166.047           4.000e+01     
   7.000          90.000            2.807e+00           2.807e+00             273.783          -1.288e+02             165.100           4.000e+01     
   8.000          90.000            2.794e+00           2.794e+00             273.830          -1.292e+02             164.103           4.000e+01     
   9.000          90.000            2.779e+00           2.779e+00             273.879          -1.295e+02             163.053           4.000e+01     
  10.000          90.000            2.762e+00           2.762e+00             273.929          -1.299e+02             161.942           4.000e+01     
  11.000          90.000            2.741e+00           2.741e+00             273.980          -1.302e+02             160.765           4.000e+01     
  12.000          90.000            2.717e+00           2.717e+00             274.032          -1.306e+02             159.516           4.000e+01     
  13.000          90.000            2.691e+00           2.691e+00             274.085          -1.310e+02             158.186           4.000e+01     
  14.000          90.000            2.662e+00           2.662e+00             274.140          -1.314e+02             156.769           4.000e+01     
  15.000          90.000            2.631e+00           2.631e+00             274.196          -1.317e+02             155.256           4.000e+01     
  16.000          90.000            2.596e+00           2.596e+00             274.253          -1.321e+02             153.638           4.000e+01     
  17.000          90.000            2.559e+00           2.559e+00             274.312          -1.325e+02             151.906           4.000e+01     
  18.000          90.000            2.519e+00           2.519e+00             274.372          -1.330e+02             150.052           4.000e+01     
  19.000          90.000            2.476e+00           2.476e+00             274.433          -1.334e+02             148.067           4.000e+01     
  20.000          90.000            2.430e+00           2.430e+00             274.496          -1.338e+02             145.943           4.000e+01     
  21.000          90.000            2.382e+00           2.382e+00             274.559          -1.342e+02             143.672           4.000e+01     
  22.000          90.000            2.331e+00           2.331e+00             274.625          -1.346e+02             141.251           4.000e+01     
  23.000          90.000            2.277e+00           2.277e+00             274.691          -1.349e+02             138.677           4.000e+01     
  24.000          90.000            2.221e+00           2.221e+00             274.759          -1.353e+02             135.952           4.000e+01     
  25.000          90.000            2.161e+00           2.161e+00             274.829          -1.356e+02             133.082           4.000e+01     
  26.000          90.000            2.099e+00           2.099e+00             274.900          -1.360e+02             130.078           4.000e+01     
  27.000          90.000            2.035e+00           2.035e+00             274.972          -1.363e+02             126.958           4.000e+01     
  28.000          90.000            1.967e+00           1.967e+00             275.046          -1.365e+02             123.746           4.000e+01     
  29.000          90.000            1.897e+00           1.897e+00             275.121          -1.368e+02             120.472           4.000e+01     
  30.000          90.000            1.825e+00           1.825e+00             275.198          -1.370e+02             117.171           4.000e+01     
  31.000          90.000            1.749e+00           1.749e+00             275.276          -1.371e+02             113.881           4.000e+01     
  32.000          90.000            1.671e+00           1.671e+00             275.356          -1.372e+02             110.643           4.000e+01     
  33.000          90.000            1.590e+00           1.590e+00             275.438          -1.373e+02             107.496           4.000e+01     
  34.000          90.000            1.507e+00           1.507e+00             275.521          -1.373e+02             104.475           4.000e+01     
  35.000          90.000            1.421e+00           1.421e+00             275.606          -1.373e+02             101.614           4.000e+01     
  36.000          90.000            1.332e+00           1.332e+00             275.693          -1.373e+02              98.938           4.000e+01     
  37.000          90.000            1.241e+00           1.241e+00             275.781          -1.372e+02              96.466           4.000e+01     
  38.000          90.000            1.147e+00           1.147e+00             275.871          -1.372e+02              94.212           4.000e+01     
  39.000          90.000            1.051e+00           1.051e+00             275.963          -1.371e+02              92.185           4.000e+01     
  40.000          90.000            9.517e-01           9.517e-01             276.057          -1.369e+02              90.386           4.000e+01     
  41.000          90.000            8.501e-01           8.501e-01             276.152          -1.368e+02              88.815           4.000e+01     
  42.000          90.000            7.459e-01           7.459e-01             276.250          -1.367e+02              87.467           4.000e+01     
  43.000          90.000            6.391e-01           6.391e-01             276.349          -1.365e+02              86.335           4.000e+01     
  44.000          90.000            5.298e-01           5.298e-01             276.451          -1.364e+02              85.412           4.000e+01     
  45.000          90.000            4.179e-01           4.179e-01             276.555          -1.362e+02              84.687           4.000e+01     
  46.000          90.000            3.035e-01           3.035e-01             276.660          -1.361e+02              84.152           4.000e+01     
  47.000          90.000            1.866e-01           1.866e-01             276.768          -1.359e+02              83.795           4.000e+01     
  48.000          90.000            6.713e-02           6.713e-02             276.878          -1.358e+02              83.606           4.000e+01     
  49.000          90.000           -5.485e-02          -5.485e-02             276.990          -1.356e+02              83.574           4.000e+01     
  50.000          90.000           -1.794e-01          -1.794e-01             277.105          -1.354e+02              83.690           4.000e+01     
  51.000          90.000           -3.064e-01          -3.064e-01             277.222          -1.353e+02              83.943           4.000e+01     
  52.000          90.000           -4.359e-01          -4.359e-01             277.342          -1.351e+02              84.323           4.000e+01     
  53.000          90.000           -5.679e-01          -5.679e-01             277.464          -1.350e+02              84.821           4.000e+01     
  54.000          90.000           -7.025e-01          -7.025e-01             277.588          -1.348e+02              85.425           4.000e+01     
  55.000          90.000           -8.395e-01          -8.395e-01             277.716          -1.346e+02              86.128           4.000e+01     
  56.000          90.000           -9.790e-01          -9.790e-01             277.846          -1.344e+02              86.922           4.000e+01     
  57.000          90.000           -1.121e+00          -1.121e+00             277.978          -1.343e+02              87.793           4.000e+01     
  58.000          90.000           -1.266e+00          -1.266e+00             278.114          -1.341e+02              88.733           4.000e+01     
  59.000          90.000           -1.413e+00          -1.413e+00             278.253          -1.339e+02              89.735           4.000e+01     
  60.000          90.000           -1.562e+00          -1.562e+00             278.394          -1.337e+02              90.789           4.000e+01     
  61.000          90.000           -1.715e+00          -1.715e+00             278.539          -1.335e+02              91.887           4.000e+01     
  62.000          90.000           -1.869e+00          -1.869e+00             278.687          -1.333e+02              93.022           4.000e+01     
  63.000          90.000           -2.027e+00          -2.027e+00             278.839          -1.331e+02              94.184           4.000e+01     
  64.000          90.000           -2.187e+00          -2.187e+00             278.993          -1.329e+02              95.368           4.000e+01     
  65.000          90.000           -2.349e+00          -2.349e+00             279.151          -1.327e+02              96.566           4.000e+01     
  66.000          90.000           -2.514e+00          -2.514e+00             279.313          -1.325e+02              97.772           4.000e+01     
  67.000          90.000           -2.682e+00          -2.682e+00             279.479          -1.323e+02              98.981           4.000e+01     
  68.000          90.000           -2.853e+00          -2.853e+00             279.648          -1.321e+02             100.186           4.000e+01     
  69.000          90.000           -3.026e+00          -3.026e+00             279.821          -1.319e+02             101.383           4.000e+01     
  70.000          90.000           -3.202e+00          -3.202e+00             279.998          -1.316e+02             102.568           4.000e+01     
  71.000          90.000           -3.381e+00          -3.381e+00             280.179          -1.314e+02             103.738           4.000e+01     
  72.000          90.000           -3.563e+00          -3.563e+00             280.364          -1.312e+02             104.889           4.000e+01     
  73.000          90.000           -3.748e+00          -3.748e+00             280.554          -1.310e+02             106.019           4.000e+01     
  74.000          90.000           -3.936e+00          -3.936e+00             280.748          -1.308e+02             107.125           4.000e+01     
  75.000          90.000           -4.126e+00          -4.126e+00             280.947          -1.305e+02             108.207           4.000e+01     
  76.000          90.000           -4.320e+00          -4.320e+00             281.151          -1.303e+02             109.262           4.000e+01     
  77.000          90.000           -4.517e+00          -4.517e+00             281.359          -1.301e+02             110.290           4.000e+01     
  78.000          90.000           -4.718e+00          -4.718e+00             281.572          -1.299e+02             111.291           4.000e+01     
  79.000          90.000           -4.921e+00          -4.921e+00             281.791          -1.296e+02             112.263           4.000e+01     
  80.000          90.000           -5.129e+00          -5.129e+00             282.014          -1.294e+02             113.208           4.000e+01     
  81.000          90.000           -5.340e+00          -5.340e+00             282.243          -1.292e+02             114.124           4.000e+01     
  82.000          90.000           -5.554e+00          -5.554e+00             282.478          -1.290e+02             115.013           4.000e+01     
  83.000          90.000           -5.773e+00          -5.773e+00             282.719          -1.288e+02             115.876           4.000e+01     
  84.000          90.000           -5.995e+00          -5.995e+00             282.965          -1.286e+02             116.712           4.000e+01     
  85.000          90.000           -6.222e+00          -6.222e+00             283.218          -1.284e+02             117.523           4.000e+01     
  86.000          90.000           -6.453e+00          -6.453e+00             283.477          -1.282e+02             118.309           4.000e+01     
  87.000          90.000           -6.688e+00          -6.688e+00             283.742          -1.280e+02             119.072           4.000e+01     
  88.000          90.000           -6.928e+00          -6.928e+00             284.015          -1.278e+02             119.812           4.000e+01     
  89.000          90.000           -7.174e+00          -7.174e+00             284.294          -1.276e+02             120.531           4.000e+01     
  90.000          90.000           -7.424e+00          -7.424e+00             284.581          -1.274e+02             121.229           4.000e+01     
  91.000          90.000           -7.680e+00          -7.680e+00             284.875          -1.273e+02             121.909           4.000e+01     
  92.000          90.000           -7.941e+00          -7.941e+00             285.178          -1.271e+02             122.570           4.000e+01     
  93.000          90.000           -8.209e+00          -8.209e+00             285.489          -1.269e+02             123.213           4.000e+01     
  94.000          90.000           -8.483e+00          -8.483e+00             285.808          -1.268e+02             123.841           4.000e+01     
  95.000          90.000           -8.764e+00          -8.764e+00             286.137          -1.266e+02             124.455           4.000e+01     
  96.000          90.000           -9.051e+00          -9.051e+00             286.476          -1.265e+02             125.054           4.000e+01     
  97.000          90.000           -9.347e+00          -9.347e+00             286.824          -1.263e+02             125.641           4.000e+01     
  98.000          90.000           -9.651e+00          -9.651e+00             287.184          -1.262e+02             126.216           4.000e+01     
  99.000          90.000           -9.963e+00          -9.963e+00             287.555          -1.260e+02             126.781           4.000e+01     
 100.000          90.000           -1.028e+01          -1.028e+01             287.938          -1.259e+02             127.336           4.000e+01     
 101.000          90.000           -1.062e+01          -1.062e+01             288.335          -1.258e+02             127.883           4.000e+01     
 102.000          90.000           -1.096e+01          -1.096e+01             288.746          -1.257e+02             128.422           4.000e+01     
 103.000          90.000           -1.131e+01          -1.131e+01             289.172          -1.255e+02             128.955           4.000e+01     
 104.000          90.000           -1.168e+01          -1.168e+01             289.615          -1.254e+02             129.482           4.000e+01     
 105.000          90.000           -1.206e+01          -1.206e+01             290.077          -1.253e+02             130.005           4.000e+01     
 106.000          90.000           -1.245e+01          -1.245e+01             290.559          -1.252e+02             130.525           4.000e+01     
 107.000          90.000           -1.286e+01          -1.286e+01             291.064          -1.251e+02             131.042           4.000e+01     
 108.000          90.000           -1.329e+01          -1.329e+01             291.595          -1.250e+02             131.557           4.000e+01     
 109.000          90.000           -1.374e+01          -1.374e+01             292.154          -1.250e+02             132.072           4.000e+01     
 110.000          90.000           -1.421e+01          -1.421e+01             292.746          -1.249e+02             132.587           4.000e+01     
 111.000          90.000           -1.470e+01          -1.470e+01             293.375          -1.248e+02             133.103           4.000e+01     
 112.000          90.000           -1.522e+01          -1.522e+01             294.048          -1.247e+02             133.622           4.000e+01     
 113.000          90.000           -1.577e+01          -1.577e+01             294.773          -1.247e+02             134.143           4.000e+01     
 114.000          90.000           -1.635e+01          -1.635e+01             295.557          -1.246e+02             134.669           4.000e+01     
 115.000          90.000           -1.697e+01          -1.697e+01             296.415          -1.246e+02             135.199           4.000e+01     
 116.000          90.000           -1.763e+01          -1.763e+01             297.362          -1.245e+02             135.736           4.000e+01     
 117.000          90.000           -1.834e+01          -1.834e+01             298.419          -1.245e+02             136.279           4.000e+01     
 118.000          90.000           -1.911e+01          -1.911e+01             299.615          -1.244e+02             136.830           4.000e+01     
 119.000          90.000           -1.995e+01          -1.995e+01             300.990          -1.244e+02             137.390           4.000e+01     
 120.000          90.000           -2.087e+01          -2.087e+01             302.602          -1.244e+02             137.961           4.000e+01     
 121.000          90.000           -2.189e+01          -2.189e+01             304.534          -1.244e+02             138.542           4.000e+01     
 122.000          90.000           -2.303e+01          -2.303e+01             306.916          -1.243e+02             139.135           4.000e+01     
 123.000          90.000           -2.431e+01          -2.431e+01             309.955          -1.243e+02             139.741           4.000e+01     
 124.000          90.000           -2.578e+01          -2.578e+01             313.997          -1.243e+02             140.362           4.000e+01     
 125.000          90.000           -2.748e+01          -2.748e+01             319.665          -1.243e+02             140.997           4.000e+01     
 126.000          90.000           -2.943e+01          -2.943e+01             328.107          -1.243e+02             141.650           4.000e+01     
 127.000          90.000           -3.157e+01          -3.157e+01             341.463          -1.244e+02             142.321           4.000e+01     
 128.000          90.000           -3.344e+01          -3.344e+01               2.649          -1.244e+02             143.010           4.000e+01     
 129.000          90.000           -3.388e+01          -3.388e+01              30.506          -1.244e+02             143.721           4.000e+01     
