Theta [deg.]  Phi   [deg.]  Abs(Gain)[dBi   ]   Abs(Theta)[dBi   ]  Phase(Theta)[deg.]  Abs(Phi  )[dBi   ]  Phase(Phi  )[deg.]  Ax.Ratio[dB    ]    
------------------------------------------------------------------------------------------------------------------------------------------------------
   0.000          90.000            2.950e+00           2.950e+00             137.113          -1.176e+02              46.359           4.000e+01     
   1.000          90.000            2.966e+00           2.966e+00             137.007          -1.178e+02              46.240           4.000e+01     
   2.000          90.000            2.978e+00           2.978e+00             136.903          -1.179e+02              46.129           4.000e+01     
   3.000          90.000            2.988e+00           2.988e+00             136.800          -1.181e+02              46.026           4.000e+01     
   4.000          90.000            2.996e+00           2.996e+00             136.700          -1.182e+02              45.930           4.000e+01     
   5.000          90.000            3.000e+00           3.000e+00             136.601          -1.184e+02              45.842           4.000e+01     
   6.000          90.000            3.002e+00           3.002e+00             136.504          -1.186e+02              45.761           4.000e+01     
   7.000          90.000            3.000e+00           3.000e+00             136.409          -1.187e+02              45.686           4.000e+01     
   8.000          90.000            2.996e+00           2.996e+00             136.316          -1.189e+02              45.618           4.000e+01     
   9.000          90.000            2.990e+00           2.990e+00             136.225          -1.191e+02              45.557           4.000e+01     
  10.000          90.000            2.980e+00           2.980e+00             136.135          -1.193e+02              45.501           4.000e+01     
  11.000          90.000            2.967e+00           2.967e+00             136.048          -1.195e+02              45.450           4.000e+01     
  12.000          90.000            2.951e+00           2.951e+00             135.962          -1.197e+02              45.405           4.000e+01     
  13.000          90.000            2.933e+00           2.933e+00             135.879          -1.199e+02              45.364           4.000e+01     
  14.000          90.000            2.912e+00           2.912e+00             135.797          -1.201e+02              45.326           4.000e+01     
  15.000          90.000            2.887e+00           2.887e+00             135.717          -1.203e+02              45.292           4.000e+01     
  16.000          90.000            2.860e+00           2.860e+00             135.640          -1.206e+02              45.260           4.000e+01     
  17.000          90.000            2.830e+00           2.830e+00             135.564          -1.208e+02              45.230           4.000e+01     
  18.000          90.000            2.797e+00           2.797e+00             135.490          -1.210e+02              45.200           4.000e+01     
  19.000          90.000            2.761e+00           2.761e+00             135.418          -1.212e+02              45.170           4.000e+01     
  20.000          90.000            2.722e+00           2.722e+00             135.348          -1.215e+02              45.138           4.000e+01     
  21.000          90.000            2.680e+00           2.680e+00             135.281          -1.217e+02              45.103           4.000e+01     
  22.000          90.000            2.635e+00           2.635e+00             135.215          -1.220e+02              45.064           4.000e+01     
  23.000          90.000            2.587e+00           2.587e+00             135.152          -1.222e+02              45.019           4.000e+01     
  24.000          90.000            2.537e+00           2.537e+00             135.090          -1.225e+02              44.967           4.000e+01     
  25.000          90.000            2.483e+00           2.483e+00             135.031          -1.227e+02              44.905           4.000e+01     
  26.000          90.000            2.427e+00           2.427e+00             134.974          -1.230e+02              44.832           4.000e+01     
  27.000          90.000            2.368e+00           2.368e+00             134.919          -1.233e+02              44.746           4.000e+01     
  28.000          90.000            2.306e+00           2.306e+00             134.866          -1.235e+02              44.643           4.000e+01     
  29.000          90.000            2.241e+00           2.241e+00             134.815          -1.238e+02              44.523           4.000e+01     
  30.000          90.000            2.173e+00           2.173e+00             134.767          -1.240e+02              44.381           4.000e+01     
  31.000          90.000            2.102e+00           2.102e+00             134.721          -1.243e+02              44.215           4.000e+01     
  32.000          90.000            2.029e+00           2.029e+00             134.678          -1.246e+02              44.022           4.000e+01     
  33.000          90.000            1.952e+00           1.952e+00             134.637          -1.248e+02              43.799           4.000e+01     
  34.000          90.000            1.874e+00           1.874e+00             134.598          -1.251e+02              43.543           4.000e+01     
  35.000          90.000            1.792e+00           1.792e+00             134.563          -1.254e+02              43.250           4.000e+01     
  36.000          90.000            1.707e+00           1.707e+00             134.529          -1.256e+02              42.916           4.000e+01     
  37.000          90.000            1.620e+00           1.620e+00             134.499          -1.259e+02              42.538           4.000e+01     
  38.000          90.000            1.531e+00           1.531e+00             134.471          -1.261e+02              42.113           4.000e+01     
  39.000          90.000            1.438e+00           1.438e+00             134.446          -1.264e+02              41.637           4.000e+01     
  40.000          90.000            1.343e+00           1.343e+00             134.423          -1.266e+02              41.106           4.000e+01     
  41.000          90.000            1.246e+00           1.246e+00             134.404          -1.269e+02              40.518           4.000e+01     
  42.000          90.000            1.146e+00           1.146e+00             134.388          -1.271e+02              39.871           4.000e+01     
  43.000          90.000            1.043e+00           1.043e+00             134.375          -1.273e+02              39.160           4.000e+01     
  44.000          90.000            9.384e-01           9.384e-01             134.365          -1.275e+02              38.386           4.000e+01     
  45.000          90.000            8.310e-01           8.310e-01             134.359          -1.277e+02              37.547           4.000e+01     
  46.000          90.000            7.213e-01           7.213e-01             134.356          -1.279e+02              36.643           4.000e+01     
  47.000          90.000            6.091e-01           6.091e-01             134.356          -1.281e+02              35.674           4.000e+01     
  48.000          90.000            4.947e-01           4.947e-01             134.361          -1.282e+02              34.642           4.000e+01     
  49.000          90.000            3.781e-01           3.781e-01             134.369          -1.284e+02              33.550           4.000e+01     
  50.000          90.000            2.592e-01           2.592e-01             134.380          -1.285e+02              32.402           4.000e+01     
  51.000          90.000            1.381e-01           1.381e-01             134.396          -1.286e+02              31.202           4.000e+01     
  52.000          90.000            1.487e-02           1.487e-02             134.416          -1.287e+02              29.956           4.000e+01     
  53.000          90.000           -1.104e-01          -1.104e-01             134.441          -1.288e+02              28.672           4.000e+01     
  54.000          90.000           -2.378e-01          -2.378e-01             134.470          -1.288e+02              27.356           4.000e+01     
  55.000          90.000           -3.671e-01          -3.671e-01             134.503          -1.288e+02              26.018           4.000e+01     
  56.000          90.000           -4.984e-01          -4.984e-01             134.541          -1.288e+02              24.666           4.000e+01     
  57.000          90.000           -6.316e-01          -6.316e-01             134.584          -1.288e+02              23.309           4.000e+01     
  58.000          90.000           -7.667e-01          -7.667e-01             134.632          -1.288e+02              21.955           4.000e+01     
  59.000          90.000           -9.036e-01          -9.036e-01             134.685          -1.287e+02              20.614           4.000e+01     
  60.000          90.000           -1.042e+00          -1.042e+00             134.744          -1.287e+02              19.293           4.000e+01     
  61.000          90.000           -1.183e+00          -1.183e+00             134.808          -1.286e+02              18.001           4.000e+01     
  62.000          90.000           -1.325e+00          -1.325e+00             134.878          -1.285e+02              16.743           4.000e+01     
  63.000          90.000           -1.468e+00          -1.468e+00             134.954          -1.283e+02              15.525           4.000e+01     
  64.000          90.000           -1.614e+00          -1.614e+00             135.036          -1.282e+02              14.352           4.000e+01     
  65.000          90.000           -1.760e+00          -1.760e+00             135.125          -1.281e+02              13.228           4.000e+01     
  66.000          90.000           -1.909e+00          -1.909e+00             135.219          -1.279e+02              12.156           4.000e+01     
  67.000          90.000           -2.058e+00          -2.058e+00             135.321          -1.277e+02              11.138           4.000e+01     
  68.000          90.000           -2.210e+00          -2.210e+00             135.429          -1.275e+02              10.174           4.000e+01     
  69.000          90.000           -2.362e+00          -2.362e+00             135.545          -1.274e+02               9.266           4.000e+01     
  70.000          90.000           -2.516e+00          -2.516e+00             135.668          -1.272e+02               8.413           4.000e+01     
  71.000          90.000           -2.671e+00          -2.671e+00             135.799          -1.270e+02               7.614           4.000e+01     
  72.000          90.000           -2.827e+00          -2.827e+00             135.937          -1.268e+02               6.869           4.000e+01     
  73.000          90.000           -2.985e+00          -2.985e+00             136.083          -1.265e+02               6.176           4.000e+01     
  74.000          90.000           -3.144e+00          -3.144e+00             136.237          -1.263e+02               5.533           4.000e+01     
  75.000          90.000           -3.304e+00          -3.304e+00             136.400          -1.261e+02               4.938           4.000e+01     
  76.000          90.000           -3.465e+00          -3.465e+00             136.572          -1.259e+02               4.390           4.000e+01     
  77.000          90.000           -3.627e+00          -3.627e+00             136.752          -1.257e+02               3.887           4.000e+01     
  78.000          90.000           -3.790e+00          -3.790e+00             136.942          -1.255e+02               3.426           4.000e+01     
  79.000          90.000           -3.955e+00          -3.955e+00             137.141          -1.253e+02               3.005           4.000e+01     
  80.000          90.000           -4.120e+00          -4.120e+00             137.349          -1.250e+02               2.622           4.000e+01     
  81.000          90.000           -4.287e+00          -4.287e+00             137.568          -1.248e+02               2.276           4.000e+01     
  82.000          90.000           -4.454e+00          -4.454e+00             137.796          -1.246e+02               1.964           4.000e+01     
  83.000          90.000           -4.623e+00          -4.623e+00             138.035          -1.244e+02               1.685           4.000e+01     
  84.000          90.000           -4.792e+00          -4.792e+00             138.284          -1.242e+02               1.436           4.000e+01     
  85.000          90.000           -4.963e+00          -4.963e+00             138.544          -1.240e+02               1.217           4.000e+01     
  86.000          90.000           -5.135e+00          -5.135e+00             138.816          -1.238e+02               1.026           4.000e+01     
  87.000          90.000           -5.308e+00          -5.308e+00             139.098          -1.236e+02               0.860           4.000e+01     
  88.000          90.000           -5.482e+00          -5.482e+00             139.392          -1.234e+02               0.720           4.000e+01     
  89.000          90.000           -5.657e+00          -5.657e+00             139.698          -1.232e+02               0.604           4.000e+01     
  90.000          90.000           -5.833e+00          -5.833e+00             140.016          -1.230e+02               0.510           4.000e+01     
  91.000          90.000           -6.010e+00          -6.010e+00             140.347          -1.229e+02               0.438           4.000e+01     
  92.000          90.000           -6.189e+00          -6.189e+00             140.690          -1.227e+02               0.387           4.000e+01     
  93.000          90.000           -6.370e+00          -6.370e+00             141.047          -1.225e+02               0.355           4.000e+01     
  94.000          90.000           -6.551e+00          -6.551e+00             141.416          -1.223e+02               0.343           4.000e+01     
  95.000          90.000           -6.734e+00          -6.734e+00             141.799          -1.222e+02               0.348           4.000e+01     
  96.000          90.000           -6.919e+00          -6.919e+00             142.197          -1.220e+02               0.372           4.000e+01     
  97.000          90.000           -7.105e+00          -7.105e+00             142.608          -1.219e+02               0.412           4.000e+01     
  98.000          90.000           -7.294e+00          -7.294e+00             143.035          -1.217e+02               0.469           4.000e+01     
  99.000          90.000           -7.484e+00          -7.484e+00             143.476          -1.216e+02               0.543           4.000e+01     
 100.000          90.000           -7.676e+00          -7.676e+00             143.933          -1.214e+02               0.631           4.000e+01     
 101.000          90.000           -7.870e+00          -7.870e+00             144.407          -1.213e+02               0.736           4.000e+01     
 102.000          90.000           -8.067e+00          -8.067e+00             144.897          -1.211e+02               0.855           4.000e+01     
 103.000          90.000           -8.266e+00          -8.266e+00             145.404          -1.210e+02               0.989           4.000e+01     
 104.000          90.000           -8.468e+00          -8.468e+00             145.928          -1.209e+02               1.137           4.000e+01     
 105.000          90.000           -8.673e+00          -8.673e+00             146.472          -1.207e+02               1.300           4.000e+01     
 106.000          90.000           -8.881e+00          -8.881e+00             147.034          -1.206e+02               1.477           4.000e+01     
 107.000          90.000           -9.093e+00          -9.093e+00             147.616          -1.205e+02               1.667           4.000e+01     
 108.000          90.000           -9.307e+00          -9.307e+00             148.220          -1.204e+02               1.872           4.000e+01     
 109.000          90.000           -9.526e+00          -9.526e+00             148.845          -1.203e+02               2.090           4.000e+01     
 110.000          90.000           -9.749e+00          -9.749e+00             149.493          -1.202e+02               2.322           4.000e+01     
 111.000          90.000           -9.976e+00          -9.976e+00             150.165          -1.201e+02               2.568           4.000e+01     
 112.000          90.000           -1.021e+01          -1.021e+01             150.863          -1.200e+02               2.827           4.000e+01     
 113.000          90.000           -1.045e+01          -1.045e+01             151.588          -1.199e+02               3.101           4.000e+01     
 114.000          90.000           -1.069e+01          -1.069e+01             152.342          -1.198e+02               3.387           4.000e+01     
 115.000          90.000           -1.094e+01          -1.094e+01             153.127          -1.197e+02               3.688           4.000e+01     
 116.000          90.000           -1.119e+01          -1.119e+01             153.944          -1.196e+02               4.002           4.000e+01     
 117.000          90.000           -1.145e+01          -1.145e+01             154.798          -1.196e+02               4.330           4.000e+01     
 118.000          90.000           -1.172e+01          -1.172e+01             155.689          -1.195e+02               4.673           4.000e+01     
 119.000          90.000           -1.200e+01          -1.200e+01             156.622          -1.194e+02               5.029           4.000e+01     
 120.000          90.000           -1.228e+01          -1.228e+01             157.601          -1.194e+02               5.400           4.000e+01     
 121.000          90.000           -1.257e+01          -1.257e+01             158.628          -1.193e+02               5.785           4.000e+01     
 122.000          90.000           -1.288e+01          -1.288e+01             159.710          -1.193e+02               6.184           4.000e+01     
 123.000          90.000           -1.319e+01          -1.319e+01             160.851          -1.192e+02               6.598           4.000e+01     
 124.000          90.000           -1.351e+01          -1.351e+01             162.058          -1.192e+02               7.028           4.000e+01     
 125.000          90.000           -1.385e+01          -1.385e+01             163.338          -1.191e+02               7.472           4.000e+01     
 126.000          90.000           -1.419e+01          -1.419e+01             164.700          -1.191e+02               7.932           4.000e+01     
 127.000          90.000           -1.455e+01          -1.455e+01             166.152          -1.191e+02               8.407           4.000e+01     
 128.000          90.000           -1.492e+01          -1.492e+01             167.706          -1.190e+02               8.898           4.000e+01     
 129.000          90.000           -1.531e+01          -1.531e+01             169.376          -1.190e+02               9.405           4.000e+01     
