Theta [deg.]  Phi   [deg.]  Abs(Gain)[dBi   ]   Abs(Theta)[dBi   ]  Phase(Theta)[deg.]  Abs(Phi  )[dBi   ]  Phase(Phi  )[deg.]  Ax.Ratio[dB    ]    
------------------------------------------------------------------------------------------------------------------------------------------------------
   0.000          90.000            2.732e+00           2.732e+00             144.407          -1.228e+02              37.158           4.000e+01     
   1.000          90.000            2.743e+00           2.743e+00             144.424          -1.231e+02              36.139           4.000e+01     
   2.000          90.000            2.752e+00           2.752e+00             144.442          -1.233e+02              35.078           4.000e+01     
   3.000          90.000            2.758e+00           2.758e+00             144.461          -1.236e+02              33.976           4.000e+01     
   4.000          90.000            2.761e+00           2.761e+00             144.481          -1.238e+02              32.827           4.000e+01     
   5.000          90.000            2.762e+00           2.762e+00             144.501          -1.241e+02              31.629           4.000e+01     
   6.000          90.000            2.760e+00           2.760e+00             144.523          -1.244e+02              30.377           4.000e+01     
   7.000          90.000            2.755e+00           2.755e+00             144.546          -1.247e+02              29.067           4.000e+01     
   8.000          90.000            2.747e+00           2.747e+00             144.569          -1.250e+02              27.695           4.000e+01     
   9.000          90.000            2.737e+00           2.737e+00             144.594          -1.253e+02              26.256           4.000e+01     
  10.000          90.000            2.724e+00           2.724e+00             144.620          -1.256e+02              24.745           4.000e+01     
  11.000          90.000            2.708e+00           2.708e+00             144.647          -1.259e+02              23.158           4.000e+01     
  12.000          90.000            2.690e+00           2.690e+00             144.675          -1.262e+02              21.489           4.000e+01     
  13.000          90.000            2.669e+00           2.669e+00             144.704          -1.265e+02              19.734           4.000e+01     
  14.000          90.000            2.645e+00           2.645e+00             144.734          -1.268e+02              17.888           4.000e+01     
  15.000          90.000            2.618e+00           2.618e+00             144.766          -1.271e+02              15.948           4.000e+01     
  16.000          90.000            2.589e+00           2.589e+00             144.799          -1.274e+02              13.909           4.000e+01     
  17.000          90.000            2.556e+00           2.556e+00             144.833          -1.277e+02              11.768           4.000e+01     
  18.000          90.000            2.521e+00           2.521e+00             144.868          -1.279e+02               9.526           4.000e+01     
  19.000          90.000            2.484e+00           2.484e+00             144.905          -1.282e+02               7.180           4.000e+01     
  20.000          90.000            2.443e+00           2.443e+00             144.943          -1.285e+02               4.733           4.000e+01     
  21.000          90.000            2.400e+00           2.400e+00             144.983          -1.288e+02               2.190           4.000e+01     
  22.000          90.000            2.354e+00           2.354e+00             145.024          -1.290e+02             359.556           4.000e+01     
  23.000          90.000            2.305e+00           2.305e+00             145.066          -1.292e+02             356.840           4.000e+01     
  24.000          90.000            2.254e+00           2.254e+00             145.111          -1.294e+02             354.054           4.000e+01     
  25.000          90.000            2.200e+00           2.200e+00             145.156          -1.296e+02             351.213           4.000e+01     
  26.000          90.000            2.143e+00           2.143e+00             145.204          -1.298e+02             348.333           4.000e+01     
  27.000          90.000            2.083e+00           2.083e+00             145.253          -1.299e+02             345.433           4.000e+01     
  28.000          90.000            2.021e+00           2.021e+00             145.303          -1.300e+02             342.534           4.000e+01     
  29.000          90.000            1.955e+00           1.955e+00             145.356          -1.301e+02             339.657           4.000e+01     
  30.000          90.000            1.888e+00           1.888e+00             145.410          -1.302e+02             336.822           4.000e+01     
  31.000          90.000            1.817e+00           1.817e+00             145.466          -1.302e+02             334.051           4.000e+01     
  32.000          90.000            1.744e+00           1.744e+00             145.525          -1.302e+02             331.362           4.000e+01     
  33.000          90.000            1.668e+00           1.668e+00             145.585          -1.302e+02             328.771           4.000e+01     
  34.000          90.000            1.589e+00           1.589e+00             145.647          -1.302e+02             326.293           4.000e+01     
  35.000          90.000            1.508e+00           1.508e+00             145.712          -1.302e+02             323.940           4.000e+01     
  36.000          90.000            1.424e+00           1.424e+00             145.779          -1.301e+02             321.719           4.000e+01     
  37.000          90.000            1.337e+00           1.337e+00             145.848          -1.300e+02             319.639           4.000e+01     
  38.000          90.000            1.248e+00           1.248e+00             145.920          -1.299e+02             317.701           4.000e+01     
  39.000          90.000            1.156e+00           1.156e+00             145.994          -1.298e+02             315.909           4.000e+01     
  40.000          90.000            1.062e+00           1.062e+00             146.071          -1.297e+02             314.261           4.000e+01     
  41.000          90.000            9.647e-01           9.647e-01             146.151          -1.296e+02             312.756           4.000e+01     
  42.000          90.000            8.650e-01           8.650e-01             146.233          -1.295e+02             311.392           4.000e+01     
  43.000          90.000            7.627e-01           7.627e-01             146.318          -1.294e+02             310.164           4.000e+01     
  44.000          90.000            6.579e-01           6.579e-01             146.407          -1.293e+02             309.069           4.000e+01     
  45.000          90.000            5.506e-01           5.506e-01             146.498          -1.292e+02             308.102           4.000e+01     
  46.000          90.000            4.407e-01           4.407e-01             146.593          -1.290e+02             307.257           4.000e+01     
  47.000          90.000            3.283e-01           3.283e-01             146.691          -1.289e+02             306.530           4.000e+01     
  48.000          90.000            2.134e-01           2.134e-01             146.793          -1.288e+02             305.916           4.000e+01     
  49.000          90.000            9.601e-02           9.601e-02             146.898          -1.287e+02             305.410           4.000e+01     
  50.000          90.000           -2.386e-02          -2.386e-02             147.008          -1.286e+02             305.006           4.000e+01     
  51.000          90.000           -1.462e-01          -1.462e-01             147.121          -1.285e+02             304.699           4.000e+01     
  52.000          90.000           -2.710e-01          -2.710e-01             147.238          -1.284e+02             304.486           4.000e+01     
  53.000          90.000           -3.982e-01          -3.982e-01             147.360          -1.282e+02             304.361           4.000e+01     
  54.000          90.000           -5.278e-01          -5.278e-01             147.486          -1.281e+02             304.320           4.000e+01     
  55.000          90.000           -6.598e-01          -6.598e-01             147.617          -1.280e+02             304.359           4.000e+01     
  56.000          90.000           -7.942e-01          -7.942e-01             147.753          -1.279e+02             304.474           4.000e+01     
  57.000          90.000           -9.310e-01          -9.310e-01             147.893          -1.278e+02             304.660           4.000e+01     
  58.000          90.000           -1.070e+00          -1.070e+00             148.039          -1.277e+02             304.914           4.000e+01     
  59.000          90.000           -1.212e+00          -1.212e+00             148.190          -1.276e+02             305.231           4.000e+01     
  60.000          90.000           -1.356e+00          -1.356e+00             148.347          -1.275e+02             305.609           4.000e+01     
  61.000          90.000           -1.502e+00          -1.502e+00             148.510          -1.274e+02             306.043           4.000e+01     
  62.000          90.000           -1.650e+00          -1.650e+00             148.678          -1.273e+02             306.530           4.000e+01     
  63.000          90.000           -1.801e+00          -1.801e+00             148.853          -1.272e+02             307.066           4.000e+01     
  64.000          90.000           -1.954e+00          -1.954e+00             149.035          -1.271e+02             307.649           4.000e+01     
  65.000          90.000           -2.110e+00          -2.110e+00             149.223          -1.270e+02             308.274           4.000e+01     
  66.000          90.000           -2.267e+00          -2.267e+00             149.418          -1.269e+02             308.938           4.000e+01     
  67.000          90.000           -2.427e+00          -2.427e+00             149.621          -1.268e+02             309.638           4.000e+01     
  68.000          90.000           -2.590e+00          -2.590e+00             149.831          -1.267e+02             310.371           4.000e+01     
  69.000          90.000           -2.754e+00          -2.754e+00             150.049          -1.266e+02             311.133           4.000e+01     
  70.000          90.000           -2.921e+00          -2.921e+00             150.275          -1.265e+02             311.923           4.000e+01     
  71.000          90.000           -3.090e+00          -3.090e+00             150.510          -1.264e+02             312.735           4.000e+01     
  72.000          90.000           -3.262e+00          -3.262e+00             150.754          -1.263e+02             313.569           4.000e+01     
  73.000          90.000           -3.436e+00          -3.436e+00             151.006          -1.262e+02             314.420           4.000e+01     
  74.000          90.000           -3.612e+00          -3.612e+00             151.268          -1.261e+02             315.287           4.000e+01     
  75.000          90.000           -3.791e+00          -3.791e+00             151.540          -1.260e+02             316.166           4.000e+01     
  76.000          90.000           -3.971e+00          -3.971e+00             151.822          -1.259e+02             317.056           4.000e+01     
  77.000          90.000           -4.155e+00          -4.155e+00             152.114          -1.258e+02             317.953           4.000e+01     
  78.000          90.000           -4.340e+00          -4.340e+00             152.418          -1.257e+02             318.857           4.000e+01     
  79.000          90.000           -4.529e+00          -4.529e+00             152.733          -1.256e+02             319.764           4.000e+01     
  80.000          90.000           -4.719e+00          -4.719e+00             153.060          -1.255e+02             320.673           4.000e+01     
  81.000          90.000           -4.912e+00          -4.912e+00             153.399          -1.254e+02             321.583           4.000e+01     
  82.000          90.000           -5.108e+00          -5.108e+00             153.750          -1.253e+02             322.491           4.000e+01     
  83.000          90.000           -5.306e+00          -5.306e+00             154.115          -1.252e+02             323.397           4.000e+01     
  84.000          90.000           -5.507e+00          -5.507e+00             154.494          -1.251e+02             324.299           4.000e+01     
  85.000          90.000           -5.711e+00          -5.711e+00             154.887          -1.250e+02             325.195           4.000e+01     
  86.000          90.000           -5.917e+00          -5.917e+00             155.295          -1.249e+02             326.086           4.000e+01     
  87.000          90.000           -6.126e+00          -6.126e+00             155.718          -1.248e+02             326.970           4.000e+01     
  88.000          90.000           -6.338e+00          -6.338e+00             156.158          -1.246e+02             327.846           4.000e+01     
  89.000          90.000           -6.554e+00          -6.554e+00             156.614          -1.245e+02             328.715           4.000e+01     
  90.000          90.000           -6.772e+00          -6.772e+00             157.088          -1.244e+02             329.576           4.000e+01     
  91.000          90.000           -6.993e+00          -6.993e+00             157.581          -1.243e+02             330.427           4.000e+01     
  92.000          90.000           -7.218e+00          -7.218e+00             158.092          -1.243e+02             331.270           4.000e+01     
  93.000          90.000           -7.446e+00          -7.446e+00             158.624          -1.242e+02             332.104           4.000e+01     
  94.000          90.000           -7.677e+00          -7.677e+00             159.177          -1.241e+02             332.928           4.000e+01     
  95.000          90.000           -7.912e+00          -7.912e+00             159.751          -1.240e+02             333.744           4.000e+01     
  96.000          90.000           -8.151e+00          -8.151e+00             160.349          -1.239e+02             334.551           4.000e+01     
  97.000          90.000           -8.394e+00          -8.394e+00             160.971          -1.238e+02             335.350           4.000e+01     
  98.000          90.000           -8.641e+00          -8.641e+00             161.619          -1.237e+02             336.141           4.000e+01     
  99.000          90.000           -8.892e+00          -8.892e+00             162.294          -1.236e+02             336.924           4.000e+01     
 100.000          90.000           -9.147e+00          -9.147e+00             162.998          -1.236e+02             337.700           4.000e+01     
 101.000          90.000           -9.408e+00          -9.408e+00             163.732          -1.235e+02             338.469           4.000e+01     
 102.000          90.000           -9.673e+00          -9.673e+00             164.498          -1.234e+02             339.233           4.000e+01     
 103.000          90.000           -9.943e+00          -9.943e+00             165.298          -1.234e+02             339.991           4.000e+01     
 104.000          90.000           -1.022e+01          -1.022e+01             166.135          -1.233e+02             340.744           4.000e+01     
 105.000          90.000           -1.050e+01          -1.050e+01             167.011          -1.233e+02             341.494           4.000e+01     
 106.000          90.000           -1.079e+01          -1.079e+01             167.929          -1.232e+02             342.240           4.000e+01     
 107.000          90.000           -1.108e+01          -1.108e+01             168.892          -1.232e+02             342.985           4.000e+01     
 108.000          90.000           -1.138e+01          -1.138e+01             169.904          -1.231e+02             343.727           4.000e+01     
 109.000          90.000           -1.169e+01          -1.169e+01             170.967          -1.231e+02             344.470           4.000e+01     
 110.000          90.000           -1.200e+01          -1.200e+01             172.087          -1.230e+02             345.212           4.000e+01     
 111.000          90.000           -1.232e+01          -1.232e+01             173.269          -1.230e+02             345.956           4.000e+01     
 112.000          90.000           -1.265e+01          -1.265e+01             174.518          -1.230e+02             346.703           4.000e+01     
 113.000          90.000           -1.298e+01          -1.298e+01             175.840          -1.230e+02             347.453           4.000e+01     
 114.000          90.000           -1.333e+01          -1.333e+01             177.242          -1.229e+02             348.208           4.000e+01     
 115.000          90.000           -1.368e+01          -1.368e+01             178.733          -1.229e+02             348.968           4.000e+01     
 116.000          90.000           -1.404e+01          -1.404e+01             180.320          -1.229e+02             349.736           4.000e+01     
 117.000          90.000           -1.441e+01          -1.441e+01             182.015          -1.229e+02             350.512           4.000e+01     
 118.000          90.000           -1.479e+01          -1.479e+01             183.829          -1.229e+02             351.297           4.000e+01     
 119.000          90.000           -1.518e+01          -1.518e+01             185.774          -1.229e+02             352.093           4.000e+01     
 120.000          90.000           -1.557e+01          -1.557e+01             187.866          -1.229e+02             352.901           4.000e+01     
 121.000          90.000           -1.598e+01          -1.598e+01             190.120          -1.230e+02             353.724           4.000e+01     
 122.000          90.000           -1.639e+01          -1.639e+01             192.556          -1.230e+02             354.561           4.000e+01     
 123.000          90.000           -1.680e+01          -1.680e+01             195.193          -1.230e+02             355.416           4.000e+01     
 124.000          90.000           -1.722e+01          -1.722e+01             198.052          -1.230e+02             356.289           4.000e+01     
 125.000          90.000           -1.764e+01          -1.764e+01             201.157          -1.231e+02             357.182           4.000e+01     
 126.000          90.000           -1.806e+01          -1.806e+01             204.530          -1.231e+02             358.097           4.000e+01     
 127.000          90.000           -1.847e+01          -1.847e+01             208.195          -1.232e+02             359.037           4.000e+01     
 128.000          90.000           -1.887e+01          -1.887e+01             212.170          -1.232e+02               0.003           4.000e+01     
 129.000          90.000           -1.925e+01          -1.925e+01             216.470          -1.233e+02               0.996           4.000e+01     
