Theta [deg.]  Phi   [deg.]  Abs(Gain)[dBi   ]   Abs(Theta)[dBi   ]  Phase(Theta)[deg.]  Abs(Phi  )[dBi   ]  Phase(Phi  )[deg.]  Ax.Ratio[dB    ]    
------------------------------------------------------------------------------------------------------------------------------------------------------
   0.000          90.000            2.548e+00           2.548e+00             145.955          -1.272e+02              50.054           4.000e+01     
   1.000          90.000            2.549e+00           2.549e+00             145.980          -1.275e+02              50.408           4.000e+01     
   2.000          90.000            2.547e+00           2.547e+00             146.007          -1.278e+02              50.802           4.000e+01     
   3.000          90.000            2.542e+00           2.542e+00             146.037          -1.281e+02              51.239           4.000e+01     
   4.000          90.000            2.534e+00           2.534e+00             146.067          -1.284e+02              51.723           4.000e+01     
   5.000          90.000            2.524e+00           2.524e+00             146.100          -1.288e+02              52.257           4.000e+01     
   6.000          90.000            2.510e+00           2.510e+00             146.135          -1.291e+02              52.846           4.000e+01     
   7.000          90.000            2.494e+00           2.494e+00             146.172          -1.295e+02              53.495           4.000e+01     
   8.000          90.000            2.474e+00           2.474e+00             146.210          -1.299e+02              54.207           4.000e+01     
   9.000          90.000            2.452e+00           2.452e+00             146.251          -1.303e+02              54.990           4.000e+01     
  10.000          90.000            2.427e+00           2.427e+00             146.293          -1.307e+02              55.848           4.000e+01     
  11.000          90.000            2.400e+00           2.400e+00             146.338          -1.311e+02              56.790           4.000e+01     
  12.000          90.000            2.369e+00           2.369e+00             146.384          -1.315e+02              57.822           4.000e+01     
  13.000          90.000            2.335e+00           2.335e+00             146.433          -1.320e+02              58.952           4.000e+01     
  14.000          90.000            2.299e+00           2.299e+00             146.483          -1.324e+02              60.189           4.000e+01     
  15.000          90.000            2.260e+00           2.260e+00             146.536          -1.329e+02              61.542           4.000e+01     
  16.000          90.000            2.217e+00           2.217e+00             146.591          -1.334e+02              63.020           4.000e+01     
  17.000          90.000            2.172e+00           2.172e+00             146.648          -1.339e+02              64.634           4.000e+01     
  18.000          90.000            2.125e+00           2.125e+00             146.707          -1.343e+02              66.394           4.000e+01     
  19.000          90.000            2.074e+00           2.074e+00             146.768          -1.348e+02              68.307           4.000e+01     
  20.000          90.000            2.021e+00           2.021e+00             146.831          -1.353e+02              70.384           4.000e+01     
  21.000          90.000            1.965e+00           1.965e+00             146.897          -1.358e+02              72.632           4.000e+01     
  22.000          90.000            1.906e+00           1.906e+00             146.965          -1.363e+02              75.053           4.000e+01     
  23.000          90.000            1.844e+00           1.844e+00             147.035          -1.368e+02              77.651           4.000e+01     
  24.000          90.000            1.780e+00           1.780e+00             147.108          -1.373e+02              80.420           4.000e+01     
  25.000          90.000            1.713e+00           1.713e+00             147.182          -1.378e+02              83.351           4.000e+01     
  26.000          90.000            1.643e+00           1.643e+00             147.259          -1.382e+02              86.427           4.000e+01     
  27.000          90.000            1.570e+00           1.570e+00             147.339          -1.386e+02              89.626           4.000e+01     
  28.000          90.000            1.495e+00           1.495e+00             147.421          -1.390e+02              92.914           4.000e+01     
  29.000          90.000            1.417e+00           1.417e+00             147.505          -1.394e+02              96.253           4.000e+01     
  30.000          90.000            1.337e+00           1.337e+00             147.592          -1.397e+02              99.599           4.000e+01     
  31.000          90.000            1.254e+00           1.254e+00             147.682          -1.400e+02             102.904           4.000e+01     
  32.000          90.000            1.169e+00           1.169e+00             147.774          -1.403e+02             106.120           4.000e+01     
  33.000          90.000            1.080e+00           1.080e+00             147.868          -1.405e+02             109.199           4.000e+01     
  34.000          90.000            9.899e-01           9.899e-01             147.965          -1.407e+02             112.097           4.000e+01     
  35.000          90.000            8.968e-01           8.968e-01             148.065          -1.409e+02             114.777           4.000e+01     
  36.000          90.000            8.012e-01           8.012e-01             148.168          -1.411e+02             117.205           4.000e+01     
  37.000          90.000            7.032e-01           7.032e-01             148.274          -1.413e+02             119.356           4.000e+01     
  38.000          90.000            6.028e-01           6.028e-01             148.382          -1.415e+02             121.206           4.000e+01     
  39.000          90.000            5.000e-01           5.000e-01             148.493          -1.416e+02             122.738           4.000e+01     
  40.000          90.000            3.949e-01           3.949e-01             148.608          -1.418e+02             123.934           4.000e+01     
  41.000          90.000            2.874e-01           2.874e-01             148.725          -1.420e+02             124.778           4.000e+01     
  42.000          90.000            1.777e-01           1.777e-01             148.845          -1.422e+02             125.252           4.000e+01     
  43.000          90.000            6.567e-02           6.567e-02             148.969          -1.424e+02             125.334           4.000e+01     
  44.000          90.000           -4.857e-02          -4.857e-02             149.095          -1.427e+02             124.998           4.000e+01     
  45.000          90.000           -1.650e-01          -1.650e-01             149.226          -1.429e+02             124.211           4.000e+01     
  46.000          90.000           -2.836e-01          -2.836e-01             149.359          -1.432e+02             122.932           4.000e+01     
  47.000          90.000           -4.043e-01          -4.043e-01             149.496          -1.435e+02             121.116           4.000e+01     
  48.000          90.000           -5.271e-01          -5.271e-01             149.636          -1.438e+02             118.707           4.000e+01     
  49.000          90.000           -6.520e-01          -6.520e-01             149.780          -1.441e+02             115.651           4.000e+01     
  50.000          90.000           -7.789e-01          -7.789e-01             149.928          -1.444e+02             111.895           4.000e+01     
  51.000          90.000           -9.078e-01          -9.078e-01             150.079          -1.446e+02             107.400           4.000e+01     
  52.000          90.000           -1.039e+00          -1.039e+00             150.235          -1.448e+02             102.185           4.000e+01     
  53.000          90.000           -1.171e+00          -1.171e+00             150.394          -1.449e+02              96.306           4.000e+01     
  54.000          90.000           -1.306e+00          -1.306e+00             150.557          -1.449e+02              89.902           4.000e+01     
  55.000          90.000           -1.443e+00          -1.443e+00             150.725          -1.447e+02              83.185           4.000e+01     
  56.000          90.000           -1.581e+00          -1.581e+00             150.896          -1.445e+02              76.415           4.000e+01     
  57.000          90.000           -1.721e+00          -1.721e+00             151.072          -1.440e+02              69.848           4.000e+01     
  58.000          90.000           -1.863e+00          -1.863e+00             151.253          -1.435e+02              63.695           4.000e+01     
  59.000          90.000           -2.007e+00          -2.007e+00             151.438          -1.429e+02              58.088           4.000e+01     
  60.000          90.000           -2.152e+00          -2.152e+00             151.627          -1.422e+02              53.083           4.000e+01     
  61.000          90.000           -2.300e+00          -2.300e+00             151.822          -1.414e+02              48.680           4.000e+01     
  62.000          90.000           -2.448e+00          -2.448e+00             152.021          -1.407e+02              44.839           4.000e+01     
  63.000          90.000           -2.599e+00          -2.599e+00             152.225          -1.400e+02              41.503           4.000e+01     
  64.000          90.000           -2.751e+00          -2.751e+00             152.435          -1.392e+02              38.607           4.000e+01     
  65.000          90.000           -2.904e+00          -2.904e+00             152.649          -1.385e+02              36.091           4.000e+01     
  66.000          90.000           -3.059e+00          -3.059e+00             152.869          -1.378e+02              33.900           4.000e+01     
  67.000          90.000           -3.216e+00          -3.216e+00             153.095          -1.371e+02              31.984           4.000e+01     
  68.000          90.000           -3.374e+00          -3.374e+00             153.325          -1.365e+02              30.303           4.000e+01     
  69.000          90.000           -3.533e+00          -3.533e+00             153.562          -1.359e+02              28.821           4.000e+01     
  70.000          90.000           -3.694e+00          -3.694e+00             153.805          -1.353e+02              27.509           4.000e+01     
  71.000          90.000           -3.857e+00          -3.857e+00             154.053          -1.347e+02              26.342           4.000e+01     
  72.000          90.000           -4.021e+00          -4.021e+00             154.307          -1.342e+02              25.299           4.000e+01     
  73.000          90.000           -4.186e+00          -4.186e+00             154.568          -1.336e+02              24.364           4.000e+01     
  74.000          90.000           -4.353e+00          -4.353e+00             154.835          -1.331e+02              23.522           4.000e+01     
  75.000          90.000           -4.521e+00          -4.521e+00             155.108          -1.327e+02              22.761           4.000e+01     
  76.000          90.000           -4.691e+00          -4.691e+00             155.388          -1.322e+02              22.071           4.000e+01     
  77.000          90.000           -4.862e+00          -4.862e+00             155.675          -1.317e+02              21.443           4.000e+01     
  78.000          90.000           -5.034e+00          -5.034e+00             155.969          -1.313e+02              20.869           4.000e+01     
  79.000          90.000           -5.208e+00          -5.208e+00             156.269          -1.309e+02              20.344           4.000e+01     
  80.000          90.000           -5.384e+00          -5.384e+00             156.577          -1.305e+02              19.861           4.000e+01     
  81.000          90.000           -5.561e+00          -5.561e+00             156.892          -1.301e+02              19.418           4.000e+01     
  82.000          90.000           -5.739e+00          -5.739e+00             157.215          -1.297e+02              19.008           4.000e+01     
  83.000          90.000           -5.919e+00          -5.919e+00             157.545          -1.294e+02              18.630           4.000e+01     
  84.000          90.000           -6.101e+00          -6.101e+00             157.882          -1.290e+02              18.280           4.000e+01     
  85.000          90.000           -6.284e+00          -6.284e+00             158.228          -1.287e+02              17.956           4.000e+01     
  86.000          90.000           -6.469e+00          -6.469e+00             158.581          -1.284e+02              17.655           4.000e+01     
  87.000          90.000           -6.655e+00          -6.655e+00             158.943          -1.281e+02              17.375           4.000e+01     
  88.000          90.000           -6.844e+00          -6.844e+00             159.313          -1.278e+02              17.115           4.000e+01     
  89.000          90.000           -7.034e+00          -7.034e+00             159.692          -1.275e+02              16.874           4.000e+01     
  90.000          90.000           -7.226e+00          -7.226e+00             160.079          -1.272e+02              16.650           4.000e+01     
  91.000          90.000           -7.421e+00          -7.421e+00             160.476          -1.269e+02              16.441           4.000e+01     
  92.000          90.000           -7.617e+00          -7.617e+00             160.881          -1.267e+02              16.248           4.000e+01     
  93.000          90.000           -7.816e+00          -7.816e+00             161.296          -1.264e+02              16.068           4.000e+01     
  94.000          90.000           -8.017e+00          -8.017e+00             161.721          -1.262e+02              15.902           4.000e+01     
  95.000          90.000           -8.220e+00          -8.220e+00             162.155          -1.259e+02              15.748           4.000e+01     
  96.000          90.000           -8.427e+00          -8.427e+00             162.600          -1.257e+02              15.607           4.000e+01     
  97.000          90.000           -8.636e+00          -8.636e+00             163.055          -1.255e+02              15.477           4.000e+01     
  98.000          90.000           -8.847e+00          -8.847e+00             163.522          -1.253e+02              15.358           4.000e+01     
  99.000          90.000           -9.063e+00          -9.063e+00             163.999          -1.251e+02              15.250           4.000e+01     
 100.000          90.000           -9.281e+00          -9.281e+00             164.488          -1.249e+02              15.152           4.000e+01     
 101.000          90.000           -9.503e+00          -9.503e+00             164.989          -1.247e+02              15.065           4.000e+01     
 102.000          90.000           -9.728e+00          -9.728e+00             165.503          -1.245e+02              14.987           4.000e+01     
 103.000          90.000           -9.958e+00          -9.958e+00             166.030          -1.243e+02              14.919           4.000e+01     
 104.000          90.000           -1.019e+01          -1.019e+01             166.571          -1.242e+02              14.860           4.000e+01     
 105.000          90.000           -1.043e+01          -1.043e+01             167.126          -1.240e+02              14.811           4.000e+01     
 106.000          90.000           -1.067e+01          -1.067e+01             167.697          -1.239e+02              14.771           4.000e+01     
 107.000          90.000           -1.092e+01          -1.092e+01             168.284          -1.237e+02              14.740           4.000e+01     
 108.000          90.000           -1.118e+01          -1.118e+01             168.888          -1.236e+02              14.718           4.000e+01     
 109.000          90.000           -1.144e+01          -1.144e+01             169.511          -1.234e+02              14.705           4.000e+01     
 110.000          90.000           -1.170e+01          -1.170e+01             170.153          -1.233e+02              14.701           4.000e+01     
 111.000          90.000           -1.198e+01          -1.198e+01             170.817          -1.232e+02              14.706           4.000e+01     
 112.000          90.000           -1.226e+01          -1.226e+01             171.504          -1.231e+02              14.720           4.000e+01     
 113.000          90.000           -1.255e+01          -1.255e+01             172.215          -1.229e+02              14.743           4.000e+01     
 114.000          90.000           -1.285e+01          -1.285e+01             172.954          -1.228e+02              14.775           4.000e+01     
 115.000          90.000           -1.315e+01          -1.315e+01             173.722          -1.227e+02              14.816           4.000e+01     
 116.000          90.000           -1.347e+01          -1.347e+01             174.523          -1.226e+02              14.866           4.000e+01     
 117.000          90.000           -1.380e+01          -1.380e+01             175.360          -1.225e+02              14.926           4.000e+01     
 118.000          90.000           -1.414e+01          -1.414e+01             176.236          -1.225e+02              14.994           4.000e+01     
 119.000          90.000           -1.449e+01          -1.449e+01             177.157          -1.224e+02              15.072           4.000e+01     
 120.000          90.000           -1.485e+01          -1.485e+01             178.128          -1.223e+02              15.160           4.000e+01     
 121.000          90.000           -1.523e+01          -1.523e+01             179.155          -1.222e+02              15.257           4.000e+01     
 122.000          90.000           -1.563e+01          -1.563e+01             180.246          -1.222e+02              15.364           4.000e+01     
 123.000          90.000           -1.604e+01          -1.604e+01             181.410          -1.221e+02              15.481           4.000e+01     
 124.000          90.000           -1.647e+01          -1.647e+01             182.657          -1.221e+02              15.608           4.000e+01     
 125.000          90.000           -1.692e+01          -1.692e+01             184.000          -1.220e+02              15.745           4.000e+01     
 126.000          90.000           -1.740e+01          -1.740e+01             185.455          -1.220e+02              15.893           4.000e+01     
 127.000          90.000           -1.789e+01          -1.789e+01             187.041          -1.219e+02              16.052           4.000e+01     
 128.000          90.000           -1.842e+01          -1.842e+01             188.782          -1.219e+02              16.221           4.000e+01     
 129.000          90.000           -1.897e+01          -1.897e+01             190.706          -1.219e+02              16.402           4.000e+01     
